Time,Extension,Load
(sec),(mm),(N)
0.00000,0.00000,0.00050
0.10000,-0.00413,-0.01370
0.20000,-0.01520,-0.01995
0.30000,-0.02733,-0.01831
0.40000,-0.03840,-0.02426
0.50000,-0.04920,-0.02337
0.60000,-0.05947,-0.02307
0.70000,-0.06973,-0.03331
0.80000,-0.07973,-0.02948
0.90000,-0.08960,-0.02692
1.00000,-0.10013,-0.03137
1.10000,-0.10987,-0.02352
1.20000,-0.12000,-0.03416
1.30000,-0.13027,-0.03785
1.40000,-0.13987,-0.03427
1.50000,-0.15013,-0.02571
1.60000,-0.16027,-0.02618
1.70000,-0.17000,-0.02836
1.80000,-0.18000,-0.03346
1.90000,-0.19000,-0.03536
2.00000,-0.20013,-0.03969
2.10000,-0.21000,-0.03495
2.20000,-0.22027,-0.04066
2.30000,-0.23000,-0.04012
2.40000,-0.23973,-0.05309
2.50000,-0.25027,-0.04589
2.60000,-0.26000,-0.03941
2.70000,-0.27000,-0.05109
2.80000,-0.28027,-0.05468
2.90000,-0.29000,-0.04963
3.00000,-0.30013,-0.04904
3.10000,-0.31013,-0.04329
3.20000,-0.31987,-0.05724
3.30000,-0.33013,-0.05491
3.40000,-0.34013,-0.05833
3.50000,-0.35000,-0.05094
3.60000,-0.36000,-0.05155
3.70000,-0.36987,-0.06678
3.80000,-0.38013,-0.05964
3.90000,-0.38987,-0.06015
4.00000,-0.40013,-0.06878
4.10000,-0.41013,-0.05425
4.20000,-0.41987,-0.07100
4.30000,-0.43027,-0.06853
4.40000,-0.43987,-0.07053
4.50000,-0.45000,-0.07300
4.60000,-0.46027,-0.06430
4.70000,-0.46973,-0.07167
4.80000,-0.48013,-0.07119
4.90000,-0.49013,-0.07318
5.00000,-0.49987,-0.07594
5.10000,-0.51000,-0.07146
5.20000,-0.51987,-0.07352
5.30000,-0.53000,-0.07328
5.40000,-0.54013,-0.07563
5.50000,-0.55013,-0.07923
5.60000,-0.56013,-0.08140
5.70000,-0.57000,-0.08133
5.80000,-0.58027,-0.09810
5.90000,-0.59000,-0.08976
6.00000,-0.60000,-0.09715
6.10000,-0.61013,-0.08758
6.20000,-0.61973,-0.10526
6.30000,-0.63013,-0.09363
6.40000,-0.64013,-0.10602
6.50000,-0.64987,-0.10347
6.60000,-0.66027,-0.10363
6.70000,-0.67013,-0.10904
6.80000,-0.68013,-0.11373
6.90000,-0.69026,-0.11446
7.00000,-0.70013,-0.11566
7.10000,-0.71013,-0.11042
7.20000,-0.72013,-0.11675
7.30000,-0.73013,-0.11957
7.40000,-0.73986,-0.11487
7.50000,-0.75000,-0.11648
7.60000,-0.76013,-0.11352
7.70000,-0.76973,-0.12229
7.80000,-0.78013,-0.12005
7.90000,-0.79000,-0.11996
8.00000,-0.79973,-0.12632
8.10000,-0.81026,-0.11495
8.20000,-0.82013,-0.12689
8.30000,-0.83000,-0.13372
8.40000,-0.84013,-0.12713
8.50000,-0.85000,-0.13021
8.60000,-0.86000,-0.12113
8.70000,-0.87000,-0.12611
8.80000,-0.88000,-0.13374
8.90000,-0.89000,-0.13253
9.00000,-0.89973,-0.13366
9.10000,-0.91000,-0.13149
9.20000,-0.91986,-0.13803
9.30000,-0.93000,-0.13860
9.40000,-0.94013,-0.14486
9.50000,-0.94986,-0.14313
9.60000,-0.96013,-0.13639
9.70000,-0.97013,-0.14690
9.80000,-0.97986,-0.15190
9.90000,-0.99040,-0.14795
10.00000,-1.00000,-0.14726
10.10000,-1.01000,-0.14212
10.20000,-1.02026,-0.15740
10.30000,-1.02973,-0.15562
10.40000,-1.04000,-0.16018
10.50000,-1.05013,-0.16234
10.60000,-1.06000,-0.15239
10.70000,-1.07000,-0.16010
10.80000,-1.08000,-0.17365
10.90000,-1.09013,-0.16815
11.00000,-1.10013,-0.16868
11.10000,-1.11026,-0.16910
11.20000,-1.12013,-0.17912
11.30000,-1.12986,-0.18123
11.40000,-1.14026,-0.18820
11.50000,-1.15000,-0.18510
11.60000,-1.16000,-0.17413
11.70000,-1.17013,-0.19087
11.80000,-1.17973,-0.19220
11.90000,-1.19013,-0.19476
12.00000,-1.20013,-0.19927
12.10000,-1.21000,-0.18827
12.20000,-1.22013,-0.19877
12.30000,-1.23013,-0.20223
12.40000,-1.24013,-0.19604
12.50000,-1.25013,-0.19922
12.60000,-1.26013,-0.19572
12.70000,-1.26986,-0.20728
12.80000,-1.27986,-0.21223
12.90000,-1.29026,-0.20994
13.00000,-1.30000,-0.21271
13.10000,-1.31000,-0.20663
13.20000,-1.32013,-0.21754
13.30000,-1.32986,-0.21494
13.40000,-1.34026,-0.22578
13.50000,-1.35013,-0.22164
13.60000,-1.35986,-0.21888
13.70000,-1.37026,-0.21933
13.80000,-1.38026,-0.23542
13.90000,-1.39013,-0.22621
14.00000,-1.40013,-0.23734
14.10000,-1.40973,-0.23012
14.20000,-1.42000,-0.24803
14.30000,-1.43000,-0.24784
14.40000,-1.43986,-0.25391
14.50000,-1.45000,-0.25378
14.60000,-1.45973,-0.25241
14.70000,-1.47013,-0.25956
14.80000,-1.47986,-0.26544
14.90000,-1.49013,-0.26424
15.00000,-1.50013,-0.27503
15.10000,-1.50973,-0.26202
15.20000,-1.52026,-0.27689
15.30000,-1.53013,-0.27893
15.40000,-1.53986,-0.28924
15.50000,-1.55013,-0.28406
15.60000,-1.55986,-0.28817
15.70000,-1.56986,-0.29778
15.80000,-1.58000,-0.30039
15.90000,-1.59000,-0.29805
16.00000,-1.60013,-0.31196
16.10000,-1.61013,-0.30832
16.20000,-1.62013,-0.31128
16.30000,-1.63013,-0.31700
16.40000,-1.64013,-0.32360
16.50000,-1.65026,-0.32517
16.60000,-1.66000,-0.31922
16.70000,-1.67026,-0.32824
16.80000,-1.68013,-0.34149
16.90000,-1.68973,-0.34314
17.00000,-1.70013,-0.33758
17.10000,-1.71000,-0.33796
17.20000,-1.72000,-0.35244
17.30000,-1.73013,-0.35480
17.40000,-1.74000,-0.36317
17.50000,-1.75013,-0.36398
17.60000,-1.76026,-0.36439
17.70000,-1.77026,-0.37905
17.80000,-1.78013,-0.37663
17.90000,-1.79000,-0.38007
18.00000,-1.80013,-0.38893
18.10000,-1.80986,-0.38373
18.20000,-1.82013,-0.39717
18.30000,-1.82986,-0.40277
18.40000,-1.83973,-0.40632
18.50000,-1.85026,-0.40574
18.60000,-1.85986,-0.40948
18.70000,-1.87000,-0.41773
18.80000,-1.88026,-0.42717
18.90000,-1.89000,-0.42302
19.00000,-1.90013,-0.43365
19.10000,-1.91026,-0.42740
19.20000,-1.91986,-0.44577
19.30000,-1.93000,-0.44616
19.40000,-1.93986,-0.45121
19.50000,-1.94986,-0.45332
19.60000,-1.96000,-0.45035
19.70000,-1.96986,-0.45946
19.80000,-1.98000,-0.46567
19.90000,-1.99000,-0.46779
20.00000,-2.00026,-0.47445
20.10000,-2.01013,-0.47710
20.20000,-2.02000,-0.48773
20.30000,-2.03026,-0.48956
20.40000,-2.04000,-0.49307
20.50000,-2.05013,-0.50189
20.60000,-2.06026,-0.49318
20.70000,-2.06960,-0.47878
20.80000,-2.08013,-0.48740
20.90000,-2.08999,-0.49059
21.00000,-2.09986,-0.49737
21.10000,-2.10999,-0.48851
21.20000,-2.11986,-0.50188
21.30000,-2.12999,-0.50926
21.40000,-2.14013,-0.51807
21.50000,-2.15026,-0.52089
21.60000,-2.16013,-0.51900
21.70000,-2.17013,-0.53286
21.80000,-2.18026,-0.54201
21.90000,-2.18999,-0.54640
22.00000,-2.19999,-0.55437
22.10000,-2.21013,-0.54920
22.20000,-2.21986,-0.56120
22.30000,-2.23013,-0.57132
22.40000,-2.23999,-0.56685
22.50000,-2.24986,-0.58251
22.60000,-2.26013,-0.57762
22.70000,-2.27013,-0.59201
22.80000,-2.28013,-0.60022
22.90000,-2.29039,-0.60779
23.00000,-2.30013,-0.61236
23.10000,-2.31013,-0.60952
23.20000,-2.32013,-0.61744
23.30000,-2.33013,-0.62098
23.40000,-2.33986,-0.62811
23.50000,-2.34999,-0.63852
23.60000,-2.36026,-0.63772
23.70000,-2.36986,-0.64967
23.80000,-2.38013,-0.65498
23.90000,-2.38999,-0.65803
24.00000,-2.39986,-0.67106
24.10000,-2.41026,-0.65744
24.20000,-2.41999,-0.67249
24.30000,-2.43013,-0.67624
24.40000,-2.44013,-0.68800
24.50000,-2.44986,-0.68364
24.60000,-2.45999,-0.68945
24.70000,-2.47013,-0.69513
24.80000,-2.47999,-0.70613
24.90000,-2.48986,-0.70347
25.00000,-2.49973,-0.71600
25.10000,-2.50986,-0.71611
25.20000,-2.51986,-0.72835
25.30000,-2.52999,-0.73759
25.40000,-2.54013,-0.74530
25.50000,-2.54986,-0.73849
25.60000,-2.56026,-0.74300
25.70000,-2.57013,-0.75863
25.80000,-2.57986,-0.76529
25.90000,-2.59026,-0.76214
26.00000,-2.59986,-0.76959
26.10000,-2.60986,-0.76482
26.20000,-2.62013,-0.77674
26.30000,-2.62986,-0.78232
26.40000,-2.63999,-0.79242
26.50000,-2.65026,-0.79480
26.60000,-2.65999,-0.79478
26.70000,-2.67013,-0.80601
26.80000,-2.68013,-0.81600
26.90000,-2.69013,-0.82747
27.00000,-2.70013,-0.83605
27.10000,-2.71026,-0.83841
27.20000,-2.72013,-0.85134
27.30000,-2.72986,-0.85745
27.40000,-2.74013,-0.86250
27.50000,-2.74986,-0.86543
27.60000,-2.75999,-0.87568
27.70000,-2.77013,-0.89233
27.80000,-2.77973,-0.89647
27.90000,-2.79013,-0.90242
28.00000,-2.80013,-0.92082
28.10000,-2.80999,-0.91556
28.20000,-2.81999,-0.92958
28.30000,-2.82999,-0.93523
28.40000,-2.84013,-0.94593
28.50000,-2.85026,-0.95284
28.60000,-2.86013,-0.95091
28.70000,-2.86999,-0.96346
28.80000,-2.87986,-0.96323
28.90000,-2.89013,-0.97776
29.00000,-2.89986,-0.98321
29.10000,-2.90999,-0.98890
29.20000,-2.92013,-1.00756
29.30000,-2.92986,-1.01365
29.40000,-2.94026,-1.02330
29.50000,-2.95013,-1.03354
29.60000,-2.95986,-1.03874
29.70000,-2.97026,-1.05801
29.80000,-2.98013,-1.06780
29.90000,-2.98999,-1.07508
30.00000,-2.99999,-1.08349
30.10000,-3.00973,-1.08029
30.20000,-3.01999,-1.10161
30.30000,-3.02986,-1.10829
30.40000,-3.03999,-1.12001
30.50000,-3.04999,-1.12705
30.60000,-3.05986,-1.13146
30.70000,-3.07026,-1.14869
30.80000,-3.07986,-1.15477
30.90000,-3.09013,-1.16838
31.00000,-3.10013,-1.17760
31.10000,-3.10973,-1.17601
31.20000,-3.12013,-1.19082
31.30000,-3.12999,-1.20494
31.40000,-3.13986,-1.21951
31.50000,-3.15013,-1.22378
31.60000,-3.15986,-1.23176
31.70000,-3.16999,-1.24658
31.80000,-3.18013,-1.25667
31.90000,-3.18999,-1.27311
32.00000,-3.19999,-1.28298
32.10000,-3.21013,-1.28588
32.20000,-3.22013,-1.29876
32.30000,-3.23013,-1.31355
32.40000,-3.24026,-1.32590
32.50000,-3.25013,-1.33582
32.60000,-3.25986,-1.34624
32.70000,-3.27013,-1.36246
32.80000,-3.28013,-1.37449
32.90000,-3.28973,-1.38870
33.00000,-3.30026,-1.40849
33.10000,-3.30999,-1.40497
33.20000,-3.31986,-1.42831
33.30000,-3.33026,-1.44028
33.40000,-3.33986,-1.45226
33.50000,-3.35013,-1.45721
33.60000,-3.36026,-1.46639
33.70000,-3.37013,-1.48402
33.80000,-3.38013,-1.49408
33.90000,-3.38999,-1.50516
34.00000,-3.39999,-1.52216
34.10000,-3.40986,-1.52578
34.20000,-3.42012,-1.54563
34.30000,-3.42986,-1.55929
34.40000,-3.43972,-1.57584
34.50000,-3.45026,-1.57459
34.60000,-3.45986,-1.59044
34.70000,-3.46999,-1.60833
34.80000,-3.48039,-1.62449
34.90000,-3.48999,-1.64531
35.00000,-3.49999,-1.66752
35.10000,-3.51012,-1.67494
35.20000,-3.51986,-1.69927
35.30000,-3.53012,-1.70994
35.40000,-3.53999,-1.73735
35.50000,-3.54999,-1.75079
35.60000,-3.55986,-1.76625
35.70000,-3.56986,-1.78410
35.80000,-3.57999,-1.79500
35.90000,-3.58986,-1.81460
36.00000,-3.60012,-1.83154
36.10000,-3.60999,-1.83529
36.20000,-3.61999,-1.86547
36.30000,-3.63039,-1.87340
36.40000,-3.63999,-1.87912
36.50000,-3.65012,-1.89836
36.60000,-3.66012,-1.91212
36.70000,-3.66972,-1.92777
36.80000,-3.68012,-1.94935
36.90000,-3.69012,-1.96772
37.00000,-3.69986,-1.99187
37.10000,-3.70999,-1.99789
37.20000,-3.71986,-2.02247
37.30000,-3.73012,-2.03600
37.40000,-3.74026,-2.05374
37.50000,-3.75026,-2.06990
37.60000,-3.76012,-2.08221
37.70000,-3.76999,-2.10701
37.80000,-3.78012,-2.12727
37.90000,-3.78999,-2.13332
38.00000,-3.80012,-2.14992
38.10000,-3.81012,-2.16035
38.20000,-3.81986,-2.16971
38.30000,-3.83012,-2.19513
38.40000,-3.83999,-2.21251
38.50000,-3.84972,-2.23050
38.60000,-3.86012,-2.23583
38.70000,-3.86999,-2.26390
38.80000,-3.87999,-2.28574
38.90000,-3.89026,-2.30344
39.00000,-3.90012,-2.31489
39.10000,-3.91012,-2.33392
39.20000,-3.92012,-2.35718
39.30000,-3.93012,-2.37762
39.40000,-3.93986,-2.39764
39.50000,-3.94999,-2.41771
39.60000,-3.96012,-2.43011
39.70000,-3.96986,-2.44414
39.80000,-3.98012,-2.46674
39.90000,-3.99012,-2.47977
40.00000,-3.99986,-2.49966
40.10000,-4.01052,-2.50674
40.20000,-4.02012,-2.52700
40.30000,-4.02999,-2.54062
40.40000,-4.04026,-2.56016
40.50000,-4.04986,-2.56738
40.60000,-4.06012,-2.57747
40.70000,-4.07012,-2.60216
40.80000,-4.07986,-2.62872
40.90000,-4.08986,-2.64322
41.00000,-4.09986,-2.66148
41.10000,-4.10986,-2.67876
41.20000,-4.11986,-2.69840
41.30000,-4.13012,-2.71036
41.40000,-4.14012,-2.73264
41.50000,-4.14986,-2.71827
41.60000,-4.16026,-2.72993
41.70000,-4.16999,-2.74176
41.80000,-4.17986,-2.74872
41.90000,-4.19039,-2.75870
42.00000,-4.19999,-2.77479
42.10000,-4.20986,-2.78539
42.20000,-4.22012,-2.81027
42.30000,-4.22972,-2.83023
42.40000,-4.23999,-2.84960
42.50000,-4.25012,-2.85888
42.60000,-4.25999,-2.86880
42.70000,-4.27012,-2.89848
42.80000,-4.28012,-2.93172
42.90000,-4.29012,-2.94942
43.00000,-4.29999,-2.96666
43.10000,-4.31026,-2.98277
43.20000,-4.32012,-3.00441
43.30000,-4.32986,-3.01874
43.40000,-4.34026,-3.04277
43.50000,-4.34999,-3.05557
43.60000,-4.35999,-3.07107
43.70000,-4.36999,-3.10002
43.80000,-4.37972,-3.12467
43.90000,-4.39012,-3.14220
44.00000,-4.40012,-3.16638
44.10000,-4.40999,-3.17424
44.20000,-4.41999,-3.19952
44.30000,-4.42999,-3.22083
44.40000,-4.44012,-3.23827
44.50000,-4.45026,-3.26401
44.60000,-4.46012,-3.28555
44.70000,-4.46999,-3.31208
44.80000,-4.47999,-3.34817
44.90000,-4.49012,-3.36368
45.00000,-4.49999,-3.37691
45.10000,-4.50999,-3.39330
45.20000,-4.52012,-3.42329
45.30000,-4.52986,-3.43480
45.40000,-4.54012,-3.45588
45.50000,-4.55012,-3.48235
45.60000,-4.55986,-3.49482
45.70000,-4.57026,-3.52388
45.80000,-4.58012,-3.54373
45.90000,-4.58999,-3.56134
46.00000,-4.60012,-3.57755
46.10000,-4.60986,-3.59286
46.20000,-4.61999,-3.62286
46.30000,-4.62999,-3.64650
46.40000,-4.63999,-3.67440
46.50000,-4.64986,-3.70334
46.60000,-4.65986,-3.72054
46.70000,-4.67026,-3.74672
46.80000,-4.67986,-3.76336
46.90000,-4.69012,-3.77462
47.00000,-4.70012,-3.80369
47.10000,-4.70972,-3.82025
47.20000,-4.72026,-3.85364
47.30000,-4.72999,-3.87464
47.40000,-4.73985,-3.89910
47.50000,-4.75012,-3.91442
47.60000,-4.75986,-3.93050
47.70000,-4.76986,-3.96080
47.80000,-4.78012,-3.97838
47.90000,-4.78999,-3.99479
48.00000,-4.80012,-4.01200
48.10000,-4.81026,-4.02108
48.20000,-4.82012,-4.05177
48.30000,-4.82999,-4.06546
48.40000,-4.84012,-4.08697
48.50000,-4.85025,-4.10294
48.60000,-4.85999,-4.11068
48.70000,-4.87012,-4.12409
48.80000,-4.87999,-4.14363
48.90000,-4.88985,-4.15819
49.00000,-4.90012,-4.17374
49.10000,-4.90985,-4.18284
49.20000,-4.91999,-4.21696
49.30000,-4.93025,-4.24154
49.40000,-4.93985,-4.25160
49.50000,-4.95012,-4.26564
49.60000,-4.96025,-4.28541
49.70000,-4.97012,-4.30670
49.80000,-4.98012,-4.33105
49.90000,-4.99012,-4.35151
50.00000,-5.00012,-4.36830
50.10000,-5.00985,-4.37481
50.20000,-5.02025,-4.39686
50.30000,-5.02985,-4.42003
50.40000,-5.03972,-4.42877
50.50000,-5.05025,-4.44722
50.60000,-5.05999,-4.45670
50.70000,-5.06999,-4.47111
50.80000,-5.08012,-4.49763
50.90000,-5.08985,-4.50769
51.00000,-5.10012,-4.52643
51.10000,-5.11025,-4.54713
51.20000,-5.11999,-4.55166
51.30000,-5.13012,-4.57589
51.40000,-5.13999,-4.59415
51.50000,-5.14999,-4.61561
51.60000,-5.15999,-4.62954
51.70000,-5.16985,-4.64928
51.80000,-5.17999,-4.66135
51.90000,-5.18985,-4.68362
52.00000,-5.20012,-4.70263
52.10000,-5.20999,-4.70778
52.20000,-5.21985,-4.72560
52.30000,-5.23039,-4.73387
52.40000,-5.23985,-4.73844
52.50000,-5.24999,-4.74803
52.60000,-5.26012,-4.76355
52.70000,-5.26972,-4.77254
52.80000,-5.28012,-4.78305
52.90000,-5.29012,-4.79715
53.00000,-5.29985,-4.80543
53.10000,-5.30999,-4.79915
53.20000,-5.31985,-4.81677
53.30000,-5.32999,-4.82621
53.40000,-5.33999,-4.83499
53.50000,-5.35012,-4.85565
53.60000,-5.36012,-4.85789
53.70000,-5.37012,-4.86668
53.80000,-5.38039,-4.88730
53.90000,-5.38999,-4.88480
54.00000,-5.39999,-4.91181
54.10000,-5.41012,-4.91340
54.20000,-5.41985,-4.92746
54.30000,-5.42999,-4.93838
54.40000,-5.43999,-4.95286
54.50000,-5.44985,-4.97118
54.60000,-5.46025,-4.97389
54.70000,-5.47012,-4.98430
54.80000,-5.47999,-4.98606
54.90000,-5.49039,-5.00345
55.00000,-5.50012,-5.01865
55.10000,-5.51012,-5.01880
55.20000,-5.52025,-5.03642
55.30000,-5.53012,-5.04283
55.40000,-5.53999,-5.05908
55.50000,-5.54999,-5.07439
55.60000,-5.56012,-5.07859
55.70000,-5.56985,-5.09647
55.80000,-5.58012,-5.10855
55.90000,-5.58999,-5.12405
56.00000,-5.59972,-5.14375
56.10000,-5.61039,-5.14526
56.20000,-5.62012,-5.15227
56.30000,-5.62999,-5.14699
56.40000,-5.64012,-5.16127
56.50000,-5.64999,-5.16080
56.60000,-5.66012,-5.16912
56.70000,-5.67012,-5.18439
56.80000,-5.67999,-5.18036
56.90000,-5.68985,-5.19523
57.00000,-5.69985,-5.21462
57.10000,-5.70999,-5.20682
57.20000,-5.71985,-5.20848
57.30000,-5.72999,-5.21008
57.40000,-5.74012,-5.22341
57.50000,-5.74985,-5.23391
57.60000,-5.76012,-5.23980
57.70000,-5.76999,-5.25762
57.80000,-5.77999,-5.27647
57.90000,-5.79039,-5.29641
58.00000,-5.79999,-5.30582
58.10000,-5.81012,-5.30683
58.20000,-5.82025,-5.33131
58.30000,-5.82985,-5.33743
58.40000,-5.83999,-5.35452
58.50000,-5.85012,-5.35579
58.60000,-5.85999,-5.36335
58.70000,-5.86999,-5.37605
58.80000,-5.88012,-5.39870
58.90000,-5.89012,-5.40259
59.00000,-5.90012,-5.41980
59.10000,-5.91025,-5.42431
59.20000,-5.91999,-5.44879
59.30000,-5.92972,-5.46595
59.40000,-5.94025,-5.49273
59.50000,-5.94999,-5.50643
59.60000,-5.95985,-5.51262
59.70000,-5.97012,-5.53414
59.80000,-5.97985,-5.53895
59.90000,-5.99012,-5.54266
60.00000,-6.00025,-5.53511
60.10000,-6.00999,-5.53485
60.20000,-6.02012,-5.56144
60.30000,-6.03012,-5.57924
60.40000,-6.04012,-5.59047
60.50000,-6.05012,-5.60449
60.60000,-6.06012,-5.60566
60.70000,-6.06999,-5.61402
60.80000,-6.07999,-5.61458
60.90000,-6.09012,-5.62107
61.00000,-6.09985,-5.63601
61.10000,-6.10985,-5.62852
61.20000,-6.12012,-5.65348
61.30000,-6.12985,-5.65139
61.40000,-6.14012,-5.65264
61.50000,-6.15012,-5.66817
61.60000,-6.15985,-5.66507
61.70000,-6.17025,-5.66934
61.80000,-6.18012,-5.67741
61.90000,-6.19012,-5.68185
62.00000,-6.19998,-5.68226
62.10000,-6.20985,-5.68705
62.20000,-6.21998,-5.70767
62.30000,-6.22985,-5.71192
62.40000,-6.23985,-5.72971
62.50000,-6.24985,-5.74379
62.60000,-6.25985,-5.74724
62.70000,-6.27025,-5.75137
62.80000,-6.27998,-5.76511
62.90000,-6.29012,-5.77224
63.00000,-6.30012,-5.78996
63.10000,-6.30985,-5.78406
63.20000,-6.32025,-5.80708
63.30000,-6.33012,-5.80186
63.40000,-6.33985,-5.81971
63.50000,-6.35012,-5.81903
63.60000,-6.35985,-5.82396
63.70000,-6.36998,-5.83262
63.80000,-6.38012,-5.83828
63.90000,-6.38998,-5.84403
64.00000,-6.39998,-5.85244
64.10001,-6.41012,-5.84843
64.20000,-6.42012,-5.86516
64.30000,-6.43012,-5.87403
64.40000,-6.44012,-5.87380
64.50000,-6.45025,-5.88575
64.60001,-6.45985,-5.88988
64.70000,-6.47012,-5.89655
64.80000,-6.48012,-5.90513
64.90000,-6.48972,-5.90220
65.00000,-6.50012,-5.91438
65.10001,-6.50985,-5.91384
65.20000,-6.51985,-5.93329
65.30000,-6.53025,-5.93309
65.40000,-6.53985,-5.93652
65.50000,-6.55012,-5.94593
65.60001,-6.56012,-5.94449
65.70001,-6.56998,-5.95064
65.80000,-6.57998,-5.95514
65.90000,-6.58998,-5.95567
66.00000,-6.60012,-5.96570
66.10001,-6.60985,-5.95982
66.20001,-6.62025,-5.97578
66.30000,-6.62998,-5.97714
66.40000,-6.63972,-5.96362
66.50000,-6.65038,-5.97956
66.60001,-6.65998,-5.98016
66.70001,-6.66998,-5.99241
66.80000,-6.68025,-5.99748
66.90000,-6.68998,-5.99898
67.00000,-6.70012,-6.00730
67.10001,-6.71025,-5.99544
67.20001,-6.71985,-6.00214
67.30000,-6.73012,-6.00786
67.40000,-6.73998,-6.01421
67.50000,-6.74985,-6.01163
67.60001,-6.75998,-6.01082
67.70001,-6.76985,-6.01885
67.80000,-6.77998,-6.02243
67.90000,-6.78985,-6.03039
68.00000,-6.80025,-6.03389
68.10001,-6.81012,-6.02238
68.20001,-6.81985,-6.03383
68.30000,-6.83025,-6.03309
68.40000,-6.83998,-6.03832
68.50000,-6.85012,-6.03771
68.60001,-6.86012,-6.03820
68.70001,-6.86972,-6.03781
68.80000,-6.87998,-6.04218
68.90000,-6.89012,-6.05038
69.00000,-6.89985,-6.05452
69.10001,-6.90998,-6.04789
69.20001,-6.91998,-6.06215
69.30000,-6.92998,-6.06481
69.40000,-6.93998,-6.07793
69.50000,-6.95025,-6.07703
69.60001,-6.95998,-6.06765
69.70001,-6.96998,-6.06529
69.80000,-6.98025,-6.08000
69.90000,-6.98998,-6.08286
70.00000,-7.00012,-6.09646
70.10001,-7.01025,-6.08980
70.20001,-7.01985,-6.10319
70.30000,-7.02998,-6.10610
70.40000,-7.03998,-6.10630
70.50000,-7.04972,-6.11878
70.60001,-7.06025,-6.11830
70.70001,-7.07012,-6.12465
70.80000,-7.07998,-6.13214
70.90000,-7.09012,-6.13323
71.00000,-7.09998,-6.13317
71.10001,-7.11012,-6.12987
71.20001,-7.12012,-6.14416
71.30000,-7.13012,-6.14417
71.40000,-7.13998,-6.15064
71.50000,-7.14985,-6.15500
71.60001,-7.16012,-6.15757
71.70001,-7.16985,-6.15570
71.80000,-7.18012,-6.16115
71.90000,-7.18998,-6.15674
72.00000,-7.19972,-6.15655
72.10001,-7.21025,-6.15687
72.20001,-7.22012,-6.15052
72.30000,-7.22998,-6.14111
72.40000,-7.24012,-6.14999
72.50000,-7.24985,-6.14726
72.60001,-7.25998,-6.14299
72.70001,-7.27012,-6.14603
72.80000,-7.27998,-6.14505
72.90000,-7.28985,-6.14319
73.00000,-7.29985,-6.14867
73.10001,-7.30985,-6.14213
73.20001,-7.31985,-6.15194
73.30000,-7.32998,-6.14395
73.40000,-7.34025,-6.14869
73.50000,-7.34985,-6.13683
73.60001,-7.36025,-6.13105
73.70001,-7.37012,-6.13478
73.80000,-7.37998,-6.13050
73.90000,-7.39025,-6.11526
74.00000,-7.39998,-6.11327
74.10001,-7.40998,-6.11067
74.20001,-7.41998,-6.11896
74.30000,-7.42972,-6.11671
74.40000,-7.43998,-6.12072
74.50000,-7.45011,-6.12019
74.60001,-7.45998,-6.11726
74.70001,-7.47012,-6.12309
74.80000,-7.47998,-6.10955
74.90000,-7.49012,-6.10828
75.00000,-7.50011,-6.10901
75.10001,-7.51025,-6.10642
75.20001,-7.51998,-6.11254
75.30000,-7.52972,-6.10764
75.40000,-7.54025,-6.11351
75.50000,-7.54998,-6.10740
75.60001,-7.55985,-6.11174
75.70001,-7.57011,-6.11352
75.80000,-7.57971,-6.10511
75.90000,-7.59011,-6.10315
76.00000,-7.60011,-6.10784
76.10001,-7.60998,-6.09562
76.20001,-7.62011,-6.09990
76.30000,-7.63011,-6.08705
76.40000,-7.64011,-6.09498
76.50000,-7.65011,-6.08899
76.60001,-7.66011,-6.08816
76.70001,-7.66998,-6.06415
76.80000,-7.67998,-6.06626
76.90000,-7.69025,-6.06869
77.00000,-7.69985,-6.06180
77.10001,-7.70985,-6.05346
77.20001,-7.72025,-6.06144
77.30000,-7.72998,-6.05572
77.40000,-7.74011,-6.05140
77.50000,-7.75025,-6.05470
77.60001,-7.75985,-6.03839
77.70001,-7.77025,-6.03587
77.80000,-7.78011,-6.03394
77.90000,-7.78998,-6.03804
78.00000,-7.80011,-6.04776
78.10001,-7.80985,-6.03856
78.20001,-7.81998,-6.04425
78.30000,-7.82985,-6.04386
78.40000,-7.83998,-6.04799
78.50000,-7.84998,-6.04302
78.60001,-7.85985,-6.04358
78.70001,-7.87011,-6.05429
78.80000,-7.87985,-6.04718
78.90000,-7.89011,-6.04647
79.00000,-7.90011,-6.05421
79.10001,-7.90971,-6.04383
79.20001,-7.92025,-6.04489
79.30000,-7.93011,-6.03828
79.40000,-7.93985,-6.04619
79.50000,-7.95011,-6.04159
79.60001,-7.95985,-6.03673
79.70001,-7.96985,-6.03914
79.80000,-7.98011,-6.03528
79.90000,-7.99011,-6.03506
80.00000,-8.00011,-6.03690
80.10001,-8.01011,-6.03210
80.20001,-8.02025,-6.04336
80.30000,-8.03011,-6.04099
80.40000,-8.04011,-6.04557
80.50001,-8.05025,-6.04943
80.60001,-8.05998,-6.04348
80.70001,-8.07025,-6.03895
80.80000,-8.07998,-6.03408
80.90000,-8.08971,-6.01890
81.00001,-8.10025,-6.02326
81.10001,-8.10985,-6.01552
81.20001,-8.11998,-6.02127
81.30000,-8.13025,-6.02308
81.40000,-8.13985,-6.02384
81.50001,-8.14998,-6.02420
81.60001,-8.16011,-6.02222
81.70001,-8.17011,-6.02310
81.80000,-8.18011,-6.01901
81.90000,-8.18998,-6.01484
82.00001,-8.19998,-6.01691
82.10001,-8.20985,-6.00837
82.20001,-8.22011,-6.00848
82.30000,-8.22998,-6.00724
82.40000,-8.23971,-6.00715
82.50001,-8.25025,-6.01258
82.60001,-8.25998,-6.00833
82.70001,-8.26998,-6.01838
82.80000,-8.28025,-6.02145
82.90000,-8.28998,-6.01803
83.00001,-8.30011,-6.01609
83.10001,-8.31025,-6.01267
83.20001,-8.31985,-6.01971
83.30000,-8.33011,-6.01724
83.40000,-8.34011,-6.02505
83.50001,-8.34985,-6.03209
83.60001,-8.35998,-6.01822
83.70001,-8.36985,-6.02676
83.80000,-8.37998,-6.02989
83.90000,-8.38985,-6.02859
84.00001,-8.40011,-6.02201
84.10001,-8.40998,-6.01965
84.20001,-8.41985,-6.02916
84.30000,-8.43038,-6.02249
84.40000,-8.43998,-6.02643
84.50001,-8.45011,-6.01233
84.60001,-8.46025,-6.00983
84.70001,-8.46985,-6.02121
84.80000,-8.48011,-6.02879
84.90000,-8.48998,-6.03138
85.00001,-8.49985,-6.02598
85.10001,-8.50998,-6.02388
85.20001,-8.51998,-6.04106
85.30000,-8.52998,-6.03269
85.40000,-8.54025,-6.04075
85.50001,-8.55011,-6.04073
85.60001,-8.55998,-6.04284
85.70001,-8.56998,-6.05013
85.80000,-8.58011,-6.05240
85.90000,-8.59011,-6.05958
86.00001,-8.60025,-6.05800
86.10001,-8.61025,-6.05616
86.20001,-8.61985,-6.06113
86.30000,-8.63011,-6.06346
86.40000,-8.63998,-6.05823
86.50001,-8.64985,-6.05938
86.60001,-8.66025,-6.05925
86.70001,-8.67011,-6.06272
86.80000,-8.67998,-6.06269
86.90000,-8.69025,-6.06188
87.00001,-8.69998,-6.05832
87.10001,-8.71011,-6.04939
87.20001,-8.72025,-6.06050
87.30000,-8.73025,-6.05215
87.40000,-8.74011,-6.04061
87.50001,-8.74998,-6.03780
87.60001,-8.76011,-6.04697
87.70001,-8.76985,-6.04898
87.80000,-8.78025,-6.04868
87.90000,-8.78998,-6.05101
88.00001,-8.79971,-6.05875
88.10001,-8.81025,-6.05296
88.20001,-8.82011,-6.06613
88.30000,-8.83011,-6.05953
88.40000,-8.84038,-6.06889
88.50001,-8.84985,-6.05727
88.60001,-8.86011,-6.05878
88.70001,-8.87011,-6.06261
88.80000,-8.87998,-6.06826
88.90000,-8.88998,-6.08255
89.00001,-8.89985,-6.07651
89.10001,-8.90998,-6.07199
89.20001,-8.91985,-6.07943
89.30000,-8.93011,-6.06648
89.40000,-8.94011,-6.08234
89.50001,-8.94985,-6.07930
89.60001,-8.96025,-6.06843
89.70001,-8.97011,-6.06773
89.80000,-8.97998,-6.06468
89.90000,-8.99038,-6.06635
90.00001,-8.99998,-6.06664
90.10001,-9.00998,-6.06633
90.20001,-9.02011,-6.07200
90.30000,-9.02971,-6.05861
90.40000,-9.04011,-6.06653
90.50001,-9.05024,-6.05827
90.60001,-9.05998,-6.05947
90.70001,-9.07011,-6.07105
90.80000,-9.08011,-6.07210
90.90000,-9.09024,-6.06204
91.00001,-9.10011,-6.06560
91.10001,-9.11024,-6.05783
91.20001,-9.12011,-6.05879
91.30000,-9.12984,-6.04911
91.40000,-9.14024,-6.04190
91.50001,-9.14998,-6.04472
91.60001,-9.15984,-6.04453
91.70001,-9.17011,-6.05471
91.80000,-9.17984,-6.04606
91.90000,-9.19011,-6.05682
92.00001,-9.20011,-6.05117
92.10001,-9.20998,-6.04865
92.20001,-9.22011,-6.04960
92.30000,-9.22998,-6.05796
92.40000,-9.24011,-6.05639
92.50001,-9.25011,-6.05335
92.60001,-9.26011,-6.05259
92.70001,-9.27011,-6.05698
92.80000,-9.27998,-6.05793
92.90000,-9.29024,-6.07005
93.00001,-9.29998,-6.07298
93.10001,-9.30998,-6.07043
93.20001,-9.32011,-6.08040
93.30000,-9.32998,-6.07725
93.40000,-9.34038,-6.07511
93.50001,-9.35024,-6.07539
93.60001,-9.35984,-6.07531
93.70001,-9.37024,-6.07525
93.80000,-9.38011,-6.07774
93.90000,-9.38998,-6.08379
94.00001,-9.40011,-6.08631
94.10001,-9.40998,-6.08341
94.20001,-9.41998,-6.08585
94.30000,-9.42998,-6.08771
94.40000,-9.43998,-6.07707
94.50001,-9.44998,-6.07701
94.60001,-9.45984,-6.07546
94.70001,-9.47024,-6.07722
94.80000,-9.47998,-6.07961
94.90000,-9.49011,-6.07280
95.00001,-9.50011,-6.08627
95.10001,-9.50984,-6.08404
95.20001,-9.52024,-6.08813
95.30000,-9.53011,-6.08423
95.40000,-9.53984,-6.08790
95.50001,-9.55024,-6.09335
95.60001,-9.55984,-6.08762
95.70001,-9.56984,-6.09494
95.80000,-9.58024,-6.10244
95.90000,-9.59011,-6.10208
96.00001,-9.59998,-6.10955
96.10001,-9.61011,-6.10349
96.20001,-9.62024,-6.12224
96.30000,-9.63024,-6.11324
96.40000,-9.64024,-6.12068
96.50001,-9.65011,-6.11676
96.60001,-9.65998,-6.11713
96.70001,-9.67024,-6.11855
96.80000,-9.67998,-6.12441
96.90000,-9.68971,-6.13384
97.00001,-9.70024,-6.13900
97.10001,-9.70998,-6.12719
97.20001,-9.71998,-6.14202
97.30000,-9.73024,-6.13994
97.40000,-9.73998,-6.15367
97.50001,-9.75024,-6.14754
97.60001,-9.76024,-6.14455
97.70001,-9.77011,-6.13795
97.80000,-9.78011,-6.13751
97.90000,-9.79011,-6.15012
98.00001,-9.80011,-6.15115
98.10001,-9.80998,-6.14889
98.20001,-9.82024,-6.16055
98.30000,-9.82998,-6.16066
98.40000,-9.83971,-6.16177
98.50001,-9.85024,-6.16699
98.60001,-9.85998,-6.16987
98.70001,-9.87011,-6.18766
98.80000,-9.88024,-6.19254
98.90000,-9.88984,-6.19326
99.00001,-9.89998,-6.20210
99.10001,-9.91011,-6.19652
99.20001,-9.91998,-6.21387
99.30000,-9.93024,-6.21987
99.40000,-9.94011,-6.22032
99.50001,-9.94998,-6.21576
99.60001,-9.95998,-6.21862
99.70001,-9.96984,-6.23318
99.80000,-9.97998,-6.23711
99.90000,-9.98998,-6.24183
100.00001,-10.00011,-6.24254
100.10001,-10.00998,-6.23486
100.20001,-10.01998,-6.25479
100.30000,-10.03038,-6.25316
100.40000,-10.03998,-6.24629
100.50001,-10.05011,-6.24877
100.60001,-10.06024,-6.25824
100.70001,-10.06984,-6.26752
100.80000,-10.08011,-6.27280
100.90000,-10.09011,-6.27938
101.00001,-10.09984,-6.27975
101.10001,-10.10998,-6.27708
101.20001,-10.11998,-6.29619
101.30000,-10.13011,-6.29681
101.40000,-10.14024,-6.29853
101.50001,-10.15011,-6.30165
101.60001,-10.16011,-6.30827
101.70001,-10.17011,-6.31832
101.80000,-10.18024,-6.32473
101.90000,-10.18998,-6.33155
102.00001,-10.20011,-6.33715
102.10001,-10.21024,-6.33355
102.20001,-10.21984,-6.35395
102.30000,-10.23011,-6.35868
102.40000,-10.24011,-6.35775
102.50001,-10.24984,-6.35536
102.60001,-10.26024,-6.35951
102.70001,-10.27011,-6.36381
102.80000,-10.27997,-6.36432
102.90000,-10.29037,-6.37604
103.00001,-10.30011,-6.38421
103.10001,-10.31024,-6.37481
103.20001,-10.32024,-6.38668
103.30000,-10.33011,-6.38814
103.40000,-10.33997,-6.39794
103.50001,-10.34997,-6.40085
103.60001,-10.36011,-6.40022
103.70001,-10.36984,-6.41160
103.80000,-10.38011,-6.41189
103.90000,-10.38997,-6.42196
104.00001,-10.39971,-6.43063
104.10001,-10.41037,-6.43096
104.20001,-10.42011,-6.44061
104.30000,-10.43011,-6.44470
104.40000,-10.44024,-6.44789
104.50001,-10.44997,-6.44921
104.60001,-10.46011,-6.44947
104.70001,-10.47011,-6.45905
104.80000,-10.47997,-6.47608
104.90000,-10.48984,-6.48418
105.00001,-10.49984,-6.48168
105.10001,-10.50997,-6.48531
105.20001,-10.51997,-6.49816
105.30000,-10.53011,-6.48943
105.40000,-10.54011,-6.49259
105.50001,-10.54984,-6.50003
105.60001,-10.56011,-6.50385
105.70001,-10.56997,-6.50673
105.80000,-10.57984,-6.50397
105.90000,-10.59037,-6.51687
106.00001,-10.60011,-6.53206
106.10001,-10.60997,-6.52484
106.20001,-10.62024,-6.53475
106.30000,-10.62984,-6.53193
106.40000,-10.64011,-6.54687
106.50001,-10.65024,-6.54002
106.60001,-10.65997,-6.54012
106.70001,-10.66997,-6.54579
106.80000,-10.68011,-6.54408
106.90000,-10.69011,-6.54996
107.00001,-10.70011,-6.56041
107.10001,-10.71024,-6.55927
107.20001,-10.72011,-6.57315
107.30000,-10.72997,-6.56746
107.40000,-10.74037,-6.57658
107.50001,-10.74997,-6.57482
107.60001,-10.75997,-6.57298
107.70001,-10.77011,-6.58879
107.80000,-10.77971,-6.58171
107.90000,-10.79024,-6.59489
108.00001,-10.80024,-6.60065
108.10001,-10.80997,-6.60285
108.20001,-10.82011,-6.61327
108.30000,-10.83011,-6.60206
108.40000,-10.84011,-6.60485
108.50001,-10.85024,-6.60293
108.60001,-10.86011,-6.61052
108.70001,-10.86997,-6.61254
108.80000,-10.87997,-6.61809
108.90000,-10.89024,-6.62469
109.00001,-10.89997,-6.62030
109.10001,-10.90997,-6.62083
109.20001,-10.92011,-6.63394
109.30000,-10.92984,-6.63616
109.40000,-10.94024,-6.64389
109.50001,-10.95024,-6.65022
109.60001,-10.95984,-6.65397
109.70001,-10.97024,-6.64861
109.80000,-10.98011,-6.65681
109.90000,-10.98997,-6.67163
110.00001,-11.00011,-6.66306
110.10001,-11.00984,-6.66025
110.20001,-11.01997,-6.66446
110.30000,-11.02984,-6.67531
110.40000,-11.03997,-6.68029
110.50001,-11.04997,-6.67721
110.60001,-11.05971,-6.68299
110.70001,-11.07024,-6.69118
110.80000,-11.07997,-6.68972
110.90000,-11.09024,-6.70250
111.00001,-11.10011,-6.71187
111.10001,-11.10971,-6.71110
111.20001,-11.12024,-6.71883
111.30000,-11.13011,-6.71796
111.40000,-11.13997,-6.72739
111.50001,-11.15024,-6.72528
111.60001,-11.15997,-6.72489
111.70001,-11.16984,-6.74194
111.80000,-11.18024,-6.73524
111.90000,-11.19011,-6.74341
112.00001,-11.20011,-6.75285
112.10001,-11.21011,-6.74491
112.20001,-11.22011,-6.75282
112.30000,-11.23011,-6.75704
112.40000,-11.24011,-6.76715
112.50001,-11.25024,-6.77500
112.60001,-11.26011,-6.76920
112.70001,-11.27024,-6.78669
112.80000,-11.28011,-6.78867
112.90001,-11.28984,-6.78846
113.00001,-11.30011,-6.79005
113.10001,-11.30984,-6.79174
113.20001,-11.31997,-6.81407
113.30000,-11.33024,-6.81766
113.40001,-11.33997,-6.81192
113.50001,-11.35011,-6.81533
113.60001,-11.36024,-6.81658
113.70001,-11.37011,-6.83207
113.80000,-11.38011,-6.83107
113.90001,-11.39011,-6.84591
114.00001,-11.40011,-6.85295
114.10001,-11.40997,-6.85038
114.20001,-11.42024,-6.86007
114.30000,-11.42997,-6.85837
114.40001,-11.43971,-6.86840
114.50001,-11.45037,-6.86852
114.60001,-11.45997,-6.87005
114.70001,-11.46997,-6.88710
114.80000,-11.48024,-6.87520
114.90001,-11.48984,-6.87771
115.00001,-11.50011,-6.89041
115.10001,-11.51024,-6.89262
115.20001,-11.51997,-6.85876
115.30000,-11.53011,-6.86762
115.40001,-11.53997,-6.87874
115.50001,-11.54997,-6.89247
115.60001,-11.55997,-6.89186
115.70001,-11.56997,-6.90435
115.80000,-11.57997,-6.88100
115.90001,-11.58997,-6.89780
116.00001,-11.60024,-6.90834
116.10001,-11.61010,-6.91431
116.20001,-11.61984,-6.92787
116.30000,-11.63037,-6.93255
116.40001,-11.63997,-6.93303
116.50001,-11.64997,-6.93366
116.60001,-11.66024,-6.92879
116.70001,-11.66970,-6.93110
116.80000,-11.68010,-6.93697
116.90001,-11.69024,-6.94423
117.00001,-11.69997,-6.95311
117.10001,-11.70984,-6.87433
117.20001,-11.71997,-6.88058
117.30000,-11.73010,-6.88889
117.40001,-11.74024,-6.88489
117.50001,-11.75037,-6.88889
117.60001,-11.76010,-6.89542
117.70001,-11.77010,-6.89906
117.80000,-11.78037,-6.89958
117.90001,-11.79010,-6.90702
118.00001,-11.80010,-6.91778
118.10001,-11.81010,-6.91420
118.20001,-11.81984,-6.92736
118.30000,-11.82997,-6.93443
118.40001,-11.84010,-6.93421
118.50001,-11.84997,-6.94324
118.60001,-11.86024,-6.93894
118.70001,-11.87010,-6.95147
118.80000,-11.87997,-6.95485
118.90001,-11.89024,-6.95466
119.00001,-11.90010,-6.95915
119.10001,-11.91010,-6.96378
119.20001,-11.92024,-6.97046
119.30000,-11.93024,-6.96877
119.40001,-11.93997,-6.97839
119.50001,-11.94997,-6.97893
119.60001,-11.96024,-6.98604
119.70001,-11.96984,-7.00059
119.80000,-11.98010,-7.00333
119.90001,-11.99010,-7.00156
120.00001,-11.99970,-7.01781
120.10001,-12.01024,-7.01571
120.20001,-12.02010,-7.02265
120.30000,-12.03010,-7.02805
120.40001,-12.04024,-7.03026
120.50001,-12.04997,-7.03290
120.60001,-12.06010,-7.03767
120.70001,-12.07010,-7.04964
120.80000,-12.08010,-7.04552
120.90001,-12.08997,-7.05101
121.00001,-12.09984,-7.05261
121.10001,-12.10997,-7.05464
121.20001,-12.11997,-7.06672
121.30000,-12.12997,-7.06520
121.40001,-12.14010,-7.07629
121.50001,-12.14984,-7.08228
121.60001,-12.16024,-7.08490
121.70001,-12.17010,-7.10042
121.80000,-12.17984,-7.11320
121.90001,-12.19024,-7.11750
122.00001,-12.19997,-7.12042
122.10001,-12.20997,-7.12020
122.20001,-12.22024,-7.13449
122.30000,-12.22984,-7.13044
122.40001,-12.23997,-7.14555
122.50001,-12.25010,-7.14601
122.60001,-12.25997,-7.14721
122.70001,-12.26997,-7.16268
122.80000,-12.28010,-7.17251
122.90001,-12.29010,-7.17585
123.00001,-12.30024,-7.19065
123.10001,-12.31037,-7.18381
123.20001,-12.31997,-7.18165
123.30000,-12.32984,-7.18592
123.40001,-12.34037,-7.20058
123.50001,-12.34997,-7.19946
123.60001,-12.35997,-7.20141
123.70001,-12.37010,-7.22233
123.80000,-12.37970,-7.22547
123.90001,-12.39010,-7.23647
124.00001,-12.40024,-7.24336
124.10001,-12.41010,-7.24761
124.20001,-12.42010,-7.25775
124.30000,-12.43024,-7.26693
124.40001,-12.44010,-7.27413
124.50001,-12.45024,-7.27655
124.60001,-12.46024,-7.28228
124.70001,-12.46997,-7.28820
124.80000,-12.47984,-7.29578
124.90001,-12.49024,-7.29548
125.00001,-12.49997,-7.31540
125.10001,-12.50997,-7.31618
125.20001,-12.52024,-7.33718
125.30000,-12.52997,-7.33844
125.40001,-12.54010,-7.34751
125.50001,-12.55024,-7.35571
125.60001,-12.55970,-7.36236
125.70001,-12.57024,-7.37372
125.80000,-12.58024,-7.37672
125.90001,-12.59010,-7.38847
126.00001,-12.60010,-7.39528
126.10001,-12.60997,-7.39562
126.20001,-12.62010,-7.41258
126.30000,-12.62997,-7.42010
126.40001,-12.63997,-7.41815
126.50001,-12.64984,-7.40506
126.60001,-12.65970,-7.41043
126.70001,-12.67037,-7.42689
126.80000,-12.67997,-7.43493
126.90001,-12.68997,-7.44961
127.00001,-12.70024,-7.46247
127.10001,-12.70984,-7.45700
127.20001,-12.72024,-7.46948
127.30000,-12.73010,-7.47206
127.40001,-12.73997,-7.49092
127.50001,-12.75010,-7.48401
127.60001,-12.75997,-7.49950
127.70001,-12.76984,-7.51304
127.80000,-12.77997,-7.52292
127.90001,-12.78997,-7.52408
128.00000,-12.80010,-7.53037
128.10001,-12.81010,-7.52799
128.20002,-12.82024,-7.54532
128.30000,-12.83024,-7.54607
128.40001,-12.84010,-7.55160
128.50000,-12.85024,-7.55639
128.60001,-12.85997,-7.57297
128.70002,-12.87024,-7.57281
128.80000,-12.88010,-7.58260
128.90001,-12.88970,-7.59601
129.00000,-12.90010,-7.59632
129.10001,-12.90997,-7.59543
129.20002,-12.91997,-7.61729
129.30000,-12.93023,-7.62415
129.40001,-12.93997,-7.62927
129.50000,-12.95024,-7.63655
129.60001,-12.96023,-7.63837
129.70002,-12.97010,-7.65622
129.80000,-12.98010,-7.65897
129.90001,-12.99010,-7.66097
130.00000,-13.00023,-7.67448
130.10001,-13.00997,-7.66403
130.20002,-13.02024,-7.67829
130.30000,-13.02997,-7.68581
130.40001,-13.03983,-7.70221
130.50000,-13.05037,-7.70523
130.60001,-13.05997,-7.69525
130.70002,-13.07010,-7.71079
130.80000,-13.08010,-7.71805
130.90001,-13.08997,-7.71734
131.00000,-13.10023,-7.73552
131.10000,-13.11023,-7.73645
131.20002,-13.12010,-7.75018
131.30000,-13.13010,-7.75562
131.40002,-13.13997,-7.75858
131.50000,-13.14997,-7.76601
131.60000,-13.15997,-7.77172
131.70002,-13.16983,-7.78753
131.80000,-13.18010,-7.80152
131.90002,-13.18997,-7.80102
132.00000,-13.20010,-7.81536
132.10000,-13.20997,-7.81246
132.20002,-13.21983,-7.83078
132.30000,-13.23023,-7.83266
132.40002,-13.24010,-7.84078
132.50000,-13.25023,-7.84379
132.60000,-13.26010,-7.84927
132.70002,-13.26983,-7.85426
132.80000,-13.28023,-7.86204
132.90002,-13.29010,-7.87460
133.00000,-13.29983,-7.88534
133.10000,-13.30997,-7.87976
133.20002,-13.31997,-7.88908
133.30000,-13.33010,-7.89674
133.40002,-13.34023,-7.90554
133.50000,-13.35023,-7.90143
133.60000,-13.36010,-7.91004
133.70002,-13.37010,-7.91925
133.80000,-13.38037,-7.92774
133.90002,-13.39010,-7.92974
134.00000,-13.40010,-7.94594
134.10000,-13.41023,-7.94790
134.20002,-13.41970,-7.96168
134.30000,-13.43010,-7.96447
134.40002,-13.44010,-7.96490
134.50000,-13.44983,-7.79980
134.60000,-13.46023,-7.82525
134.70002,-13.47010,-7.84425
134.80000,-13.47997,-7.85817
134.90002,-13.49037,-7.87072
135.00000,-13.49997,-7.87860
135.10000,-13.50997,-7.88783
135.20002,-13.52023,-7.86010
135.30000,-13.53023,-7.87174
135.40002,-13.54010,-7.88198
135.50000,-13.54997,-7.89346
135.60000,-13.56010,-7.90831
135.70002,-13.56983,-7.91972
135.80000,-13.58010,-7.92378
135.90002,-13.58997,-7.93222
136.00000,-13.59983,-7.94742
136.10000,-13.61037,-7.94327
136.20002,-13.62023,-7.95966
136.30000,-13.63010,-7.96674
136.40002,-13.64023,-7.97392
136.50000,-13.64997,-7.97237
136.60000,-13.66010,-7.98009
136.70002,-13.67023,-7.98654
136.80000,-13.67997,-7.89926
136.90002,-13.68997,-7.91548
137.00000,-13.69983,-7.93237
137.10000,-13.70997,-7.92696
137.20002,-13.71997,-7.95150
137.30000,-13.72997,-7.95547
137.40002,-13.74023,-7.96778
137.50000,-13.74997,-7.97395
137.60000,-13.76023,-7.98206
137.70002,-13.77010,-7.99296
137.80000,-13.77997,-7.98968
137.90002,-13.79023,-7.99993
138.00000,-13.79997,-8.01547
138.10000,-13.80983,-8.01898
138.20002,-13.82023,-8.03535
138.30000,-13.82983,-8.03182
138.40002,-13.84010,-8.04837
138.50000,-13.85023,-8.05458
138.60000,-13.86010,-8.05971
138.70002,-13.87010,-8.06703
138.80000,-13.87997,-8.06638
138.90002,-13.89010,-8.05983
139.00000,-13.90010,-8.06393
139.10000,-13.91023,-8.05389
139.20002,-13.91997,-8.06200
139.30000,-13.92970,-7.97541
139.40002,-13.94023,-7.96413
139.50000,-13.94997,-7.97234
139.60000,-13.95997,-7.99499
139.70002,-13.97010,-7.99740
139.80000,-13.97970,-8.00858
139.90002,-13.99010,-8.02680
140.00000,-14.00023,-8.04677
140.10000,-14.00997,-8.04059
140.20002,-14.02010,-8.05873
140.30000,-14.03010,-8.07484
140.40002,-14.04010,-8.06588
140.50000,-14.05023,-8.07304
140.60000,-14.06023,-8.07676
140.70002,-14.07010,-8.08789
140.80000,-14.07997,-8.08506
140.90002,-14.09023,-8.09109
141.00000,-14.09997,-8.10339
141.10000,-14.10997,-8.09446
141.20002,-14.12023,-8.11132
141.30000,-14.12997,-8.12257
141.40002,-14.14023,-8.12419
141.50000,-14.15023,-8.13611
141.60000,-14.15997,-8.13981
141.70002,-14.17037,-8.15781
141.80000,-14.18010,-8.16701
141.90002,-14.18997,-8.14274
142.00000,-14.20010,-8.16036
142.10000,-14.20983,-8.17569
142.20002,-14.21996,-8.18931
142.30000,-14.22997,-8.20258
142.40002,-14.23983,-8.22170
142.50000,-14.24997,-8.23520
142.60000,-14.25983,-8.24286
142.70002,-14.27023,-8.25609
142.80000,-14.27997,-8.26276
142.90002,-14.29010,-8.27106
143.00000,-14.30023,-8.29125
143.10000,-14.30983,-8.28971
143.20002,-14.32023,-8.30781
143.30000,-14.33010,-8.33061
143.40002,-14.33983,-8.34478
143.50000,-14.35010,-8.33739
143.60000,-14.35983,-8.35594
143.70002,-14.36996,-8.37484
143.80000,-14.38010,-8.37957
143.90002,-14.38996,-8.39116
144.00000,-14.40010,-8.41209
144.10000,-14.41023,-8.41403
144.20002,-14.42023,-8.42870
144.30000,-14.43023,-8.43520
144.40002,-14.44023,-8.44506
144.50000,-14.45023,-8.44612
144.60000,-14.45996,-8.44429
144.70002,-14.47023,-8.46220
144.80000,-14.48010,-8.47867
144.90002,-14.48970,-8.49555
145.00000,-14.50023,-8.51163
145.10000,-14.50996,-8.52078
145.20002,-14.51996,-8.51190
145.30000,-14.53023,-8.53621
145.40002,-14.53983,-8.53946
145.50000,-14.55010,-8.55404
145.60000,-14.56023,-8.56129
145.70002,-14.57023,-8.58221
145.80000,-14.58023,-8.60702
145.90002,-14.59023,-8.60756
146.00000,-14.60023,-8.63332
146.10000,-14.60996,-8.63099
146.20002,-14.62010,-8.65465
146.30000,-14.62996,-8.65613
146.40002,-14.63970,-8.67121
146.50000,-14.65023,-8.67809
146.60000,-14.65996,-8.68070
146.70002,-14.66996,-8.69463
146.80000,-14.68023,-8.70945
146.90002,-14.68996,-8.71557
147.00000,-14.70010,-8.73508
147.10000,-14.71023,-8.74425
147.20002,-14.71983,-8.76434
147.30000,-14.73010,-8.77483
147.40002,-14.73996,-8.78966
147.50000,-14.74996,-8.79890
147.60000,-14.75996,-8.80898
147.70002,-14.76996,-8.83355
147.80000,-14.77996,-8.84939
147.90002,-14.78983,-8.86162
148.00000,-14.80010,-8.86922
148.10000,-14.80996,-8.87420
148.20002,-14.81983,-8.90451
148.30000,-14.83036,-8.90635
148.40002,-14.83996,-8.92048
148.50000,-14.85010,-8.93175
148.60000,-14.86023,-8.94335
148.70002,-14.86970,-8.95647
148.80000,-14.88010,-8.98117
148.90002,-14.89010,-8.97238
149.00000,-14.89983,-8.99667
149.10000,-14.90996,-8.98951
149.20002,-14.91996,-9.00814
149.30000,-14.92996,-9.01957
149.40002,-14.94023,-9.03027
149.50000,-14.95010,-9.04451
149.60000,-14.95996,-9.05469
149.70002,-14.96996,-9.06306
149.80000,-14.98023,-9.08235
149.90002,-14.99010,-9.08090
150.00000,-15.00010,-9.10744
150.10000,-15.01023,-9.11103
150.20002,-15.01983,-9.12846
150.30000,-15.03010,-9.14188
150.40002,-15.03996,-9.15150
150.50000,-15.04983,-9.16759
150.60000,-15.06023,-9.16822
150.70002,-15.07010,-9.18557
150.80000,-15.08010,-9.19582
150.90002,-15.09036,-9.21246
151.00000,-15.10010,-9.22326
151.10000,-15.11010,-9.23447
151.20002,-15.12023,-9.25720
151.30000,-15.13010,-9.26353
151.40002,-15.13983,-9.26428
151.50000,-15.14996,-9.29263
151.60000,-15.16010,-9.30072
151.70002,-15.16983,-9.32159
151.80000,-15.18023,-9.34119
151.90002,-15.18996,-9.34708
152.00000,-15.19970,-9.37316
152.10000,-15.21036,-9.37773
152.20002,-15.22010,-9.39764
152.30000,-15.23010,-9.40641
152.40002,-15.24023,-9.41988
152.50000,-15.24983,-9.43003
152.60000,-15.26010,-9.44251
152.70002,-15.27023,-9.47118
152.80000,-15.27996,-9.47570
152.90002,-15.28983,-9.48908
153.00000,-15.29983,-9.50862
153.10000,-15.30996,-9.51174
153.20002,-15.31996,-9.53919
153.30000,-15.33010,-9.54989
153.40002,-15.34010,-9.57035
153.50000,-15.34983,-9.58322
153.60000,-15.36036,-9.59152
153.70002,-15.37010,-9.61165
153.80000,-15.37983,-9.63722
153.90002,-15.39036,-9.64152
154.00000,-15.40010,-9.66410
154.10000,-15.40996,-9.66880
154.20002,-15.42023,-9.69348
154.30000,-15.42983,-9.69914
154.40002,-15.43996,-9.72005
154.50000,-15.45023,-9.71747
154.60000,-15.45996,-9.72381
154.70002,-15.46996,-9.74272
154.80000,-15.48010,-9.75498
154.90002,-15.49023,-9.76559
155.00000,-15.50023,-9.79811
155.10000,-15.51036,-9.79763
155.20002,-15.52010,-9.81445
155.30000,-15.52996,-9.82608
155.40002,-15.54023,-9.86045
155.50000,-15.54996,-9.87121
155.60000,-15.55996,-9.88352
155.70002,-15.57009,-9.91099
155.80000,-15.57983,-9.92635
155.90002,-15.59023,-9.93167
156.00000,-15.60023,-9.95107
156.10000,-15.60996,-9.95363
156.20002,-15.62009,-9.95017
156.30000,-15.63010,-9.95305
156.40002,-15.64009,-9.97376
156.50000,-15.65023,-9.98675
156.60000,-15.66023,-10.00053
156.70002,-15.67009,-10.01139
156.80000,-15.67996,-9.94364
156.90002,-15.69023,-9.96404
157.00000,-15.69996,-9.99211
157.10000,-15.70996,-10.00703
157.20002,-15.72023,-10.04033
157.30000,-15.72983,-10.04350
157.40002,-15.74009,-10.07598
157.50000,-15.75023,-10.08951
157.60000,-15.75996,-10.10259
157.70002,-15.77036,-10.12583
157.80000,-15.78023,-10.13920
157.90002,-15.78996,-10.14541
158.00000,-15.80009,-10.17047
158.10000,-15.80983,-10.17656
158.20002,-15.81996,-10.21424
158.30000,-15.82996,-10.21149
158.40002,-15.83996,-10.23961
158.50000,-15.84983,-10.25655
158.60000,-15.85970,-10.26535
158.70002,-15.87023,-10.29281
158.80000,-15.87996,-10.30299
158.90002,-15.89023,-10.31937
159.00000,-15.90023,-10.33687
159.10000,-15.90983,-10.33776
159.20002,-15.92023,-10.35605
159.30000,-15.93010,-10.36314
159.40002,-15.93983,-10.39199
159.50000,-15.95023,-10.39652
159.60000,-15.95983,-10.41672
159.70002,-15.96996,-10.44094
159.80000,-15.98009,-10.45122
159.90002,-15.99010,-10.47073
160.00000,-16.00009,-10.48945
160.01202,-16.00116,-10.49033
