Time,Extension,Load
(sec),(mm),(N)
0.00000,0.00027,-0.00675
0.10000,-0.00267,-0.00513
0.20000,-0.01520,-0.01532
0.30000,-0.02773,-0.02042
0.40000,-0.03880,-0.01461
0.50000,-0.04907,-0.01151
0.60000,-0.05947,-0.00488
0.70000,-0.06933,-0.01543
0.80000,-0.07973,-0.01378
0.90000,-0.08960,-0.01576
1.00000,-0.09973,-0.02511
1.10000,-0.10973,-0.01303
1.20000,-0.11960,-0.01020
1.30000,-0.13013,-0.02268
1.40000,-0.13973,-0.01378
1.50000,-0.14987,-0.01683
1.60000,-0.16000,-0.00950
1.70000,-0.16960,-0.02038
1.80000,-0.18000,-0.02496
1.90000,-0.18973,-0.02247
2.00000,-0.19973,-0.02706
2.10000,-0.20987,-0.01588
2.20000,-0.21960,-0.02164
2.30000,-0.22973,-0.02708
2.40000,-0.24000,-0.02560
2.50000,-0.24987,-0.02348
2.60000,-0.25987,-0.02234
2.70000,-0.27000,-0.03235
2.80000,-0.28000,-0.03056
2.90000,-0.29000,-0.02485
3.00000,-0.30000,-0.02863
3.10000,-0.31000,-0.02585
3.20000,-0.31960,-0.02579
3.30000,-0.33000,-0.03279
3.40000,-0.33987,-0.03174
3.50000,-0.34960,-0.03409
3.60000,-0.36000,-0.02486
3.70000,-0.36973,-0.03261
3.80000,-0.37973,-0.03805
3.90000,-0.39013,-0.03872
4.00000,-0.39973,-0.03600
4.10000,-0.41000,-0.03655
4.20000,-0.42000,-0.04276
4.30000,-0.42987,-0.04298
4.40000,-0.44000,-0.03844
4.50000,-0.44987,-0.03183
4.60000,-0.45987,-0.03804
4.70000,-0.46960,-0.05014
4.80000,-0.48000,-0.04713
4.90000,-0.48973,-0.04767
5.00000,-0.49960,-0.05040
5.10000,-0.51013,-0.05026
5.20000,-0.51973,-0.05474
5.30000,-0.52987,-0.05476
5.40000,-0.54013,-0.05334
5.50000,-0.54960,-0.04727
5.60000,-0.55987,-0.05352
5.70000,-0.57000,-0.06387
5.80000,-0.57987,-0.05622
5.90000,-0.58987,-0.06445
6.00000,-0.59973,-0.05504
6.10000,-0.60973,-0.06079
6.20000,-0.61973,-0.06121
6.30000,-0.62960,-0.07189
6.40000,-0.63987,-0.06838
6.50000,-0.64960,-0.06738
6.60000,-0.65987,-0.07136
6.70000,-0.66987,-0.07051
6.80000,-0.67973,-0.07878
6.90000,-0.69013,-0.07931
7.00000,-0.69973,-0.07210
7.10000,-0.70986,-0.07259
7.20000,-0.72000,-0.08747
7.30000,-0.72946,-0.08715
7.40000,-0.73986,-0.08325
7.50000,-0.74986,-0.09664
7.60000,-0.75973,-0.08990
7.70000,-0.76986,-0.09420
7.80000,-0.77973,-0.10339
7.90000,-0.78986,-0.10253
8.00000,-0.80000,-0.11350
8.10000,-0.81000,-0.10262
8.20000,-0.81986,-0.11234
8.30000,-0.82986,-0.12017
8.40000,-0.84013,-0.12569
8.50000,-0.84973,-0.11995
8.60000,-0.86000,-0.12721
8.70000,-0.87013,-0.13848
8.80000,-0.87960,-0.13216
8.90000,-0.88986,-0.14720
9.00000,-0.89986,-0.14124
9.10000,-0.90960,-0.14371
9.20000,-0.91986,-0.15354
9.30000,-0.92986,-0.16324
9.40000,-0.93986,-0.15880
9.50000,-0.95013,-0.17319
9.60000,-0.96013,-0.16782
9.70000,-0.97000,-0.17967
9.80000,-0.97986,-0.17622
9.90000,-0.99000,-0.19308
10.00000,-0.99973,-0.19303
10.10000,-1.00986,-0.19884
10.20000,-1.01986,-0.20930
10.30000,-1.02946,-0.21804
10.40000,-1.03986,-0.22104
10.50000,-1.04986,-0.22442
10.60000,-1.05973,-0.23349
10.70000,-1.07013,-0.24258
10.80000,-1.07986,-0.24424
10.90000,-1.08986,-0.25820
11.00000,-1.10000,-0.26603
11.10000,-1.10960,-0.27194
11.20000,-1.11986,-0.28092
11.30000,-1.12973,-0.29106
11.40000,-1.13973,-0.30402
11.50000,-1.14960,-0.30751
11.60000,-1.15960,-0.30918
11.70000,-1.16986,-0.32730
11.80000,-1.17973,-0.33404
11.90000,-1.19000,-0.33836
12.00000,-1.20000,-0.35308
12.10000,-1.20973,-0.35427
12.20000,-1.22000,-0.36995
12.30000,-1.22973,-0.37271
12.40000,-1.23986,-0.38641
12.50000,-1.25013,-0.39527
12.60000,-1.25960,-0.39477
12.70000,-1.26973,-0.41440
12.80000,-1.27986,-0.41937
12.90000,-1.28946,-0.44015
13.00000,-1.29986,-0.44565
13.10000,-1.30986,-0.45285
13.20000,-1.31973,-0.47422
13.30000,-1.32986,-0.48701
13.40000,-1.34000,-0.49756
13.50000,-1.35013,-0.51556
13.60000,-1.36000,-0.52172
13.70000,-1.37000,-0.54309
13.80000,-1.37986,-0.55117
13.90000,-1.38960,-0.57022
14.00000,-1.40000,-0.58320
14.10000,-1.40960,-0.58311
14.20000,-1.41973,-0.60925
14.30000,-1.42986,-0.62997
14.40000,-1.43960,-0.64381
14.50000,-1.45000,-0.65663
14.60000,-1.46000,-0.67735
14.70000,-1.46973,-0.69908
14.80000,-1.48000,-0.71839
14.90000,-1.48986,-0.73548
15.00000,-1.50000,-0.75211
15.10000,-1.50986,-0.76344
15.20000,-1.52000,-0.77080
15.30000,-1.52973,-0.78462
15.40000,-1.53973,-0.81116
15.50000,-1.55000,-0.82101
15.60000,-1.55973,-0.81726
15.70000,-1.56986,-0.83565
15.80000,-1.57986,-0.84119
15.90000,-1.58960,-0.84888
16.00000,-1.60000,-0.86460
16.10000,-1.60986,-0.86713
16.20000,-1.61973,-0.89461
16.30000,-1.63000,-0.90720
16.40000,-1.63986,-0.92577
16.50000,-1.64973,-0.93590
16.60000,-1.65986,-0.93977
16.70000,-1.66973,-0.96297
16.80000,-1.67986,-0.97643
16.90000,-1.68973,-0.99659
17.00000,-1.69960,-1.01863
17.10000,-1.70960,-1.03557
17.20000,-1.71960,-1.06309
17.30000,-1.72986,-1.07933
17.40000,-1.73960,-1.10717
17.50000,-1.74986,-1.12691
17.60000,-1.75986,-1.15055
17.70000,-1.76960,-1.18232
17.80000,-1.78000,-1.19319
17.90000,-1.78986,-1.21883
18.00000,-1.79960,-1.22483
18.10000,-1.80986,-1.23369
18.20000,-1.81960,-1.26064
18.30000,-1.82986,-1.28385
18.40000,-1.84000,-1.29431
18.50000,-1.84973,-1.32689
18.60000,-1.85986,-1.34809
18.70000,-1.87000,-1.37651
18.80000,-1.88000,-1.40428
18.90000,-1.88986,-1.42816
19.00000,-1.90000,-1.44986
19.10000,-1.91000,-1.47399
19.20000,-1.91973,-1.50444
19.30000,-1.93000,-1.54219
19.40000,-1.93973,-1.55129
19.50000,-1.94960,-1.57155
19.60000,-1.96000,-1.55775
19.70000,-1.96960,-1.58582
19.80000,-1.97973,-1.62506
19.90000,-1.99000,-1.65803
20.00000,-1.99973,-1.69050
20.10000,-2.01000,-1.72261
20.20000,-2.02000,-1.76483
20.30000,-2.03000,-1.80024
20.40000,-2.04000,-1.83405
20.50000,-2.04986,-1.85454
20.60000,-2.05986,-1.88664
20.70000,-2.06960,-1.90331
20.80000,-2.07999,-1.92971
20.90000,-2.08959,-1.95969
21.00000,-2.09946,-1.99196
21.10000,-2.11013,-2.01593
21.20000,-2.11973,-2.04695
21.30000,-2.12999,-2.08704
21.40000,-2.14013,-2.11887
21.50000,-2.14973,-2.13461
21.60000,-2.16013,-2.15877
21.70000,-2.16999,-2.19725
21.80000,-2.17973,-2.21581
21.90000,-2.18986,-2.23291
22.00000,-2.19973,-2.25889
22.10000,-2.20973,-2.27122
22.20000,-2.21973,-2.30187
22.30000,-2.22959,-2.32651
22.40000,-2.23986,-2.35297
22.50000,-2.24973,-2.37678
22.60000,-2.25999,-2.38933
22.70000,-2.26986,-2.41997
22.80000,-2.27973,-2.44580
22.90000,-2.28999,-2.47324
23.00000,-2.29959,-2.49780
23.10000,-2.30986,-2.51081
23.20000,-2.31999,-2.54453
23.30000,-2.32959,-2.50051
23.40000,-2.33999,-2.50777
23.50000,-2.34986,-2.54801
23.60000,-2.35973,-2.56683
23.70000,-2.36986,-2.59379
23.80000,-2.37959,-2.60816
23.90000,-2.38986,-2.63382
24.00000,-2.39986,-2.65006
24.10000,-2.40999,-2.66775
24.20000,-2.41986,-2.69736
24.30000,-2.42986,-2.71643
24.40000,-2.43999,-2.73394
24.50000,-2.44973,-2.74867
24.60000,-2.45986,-2.76655
24.70000,-2.46986,-2.80244
24.80000,-2.47959,-2.82892
24.90000,-2.48999,-2.86499
25.00000,-2.49986,-2.89906
25.10000,-2.50959,-2.91467
25.20000,-2.51999,-2.96485
25.30000,-2.52986,-2.99590
25.40000,-2.53986,-3.02951
25.50000,-2.55013,-3.06995
25.60000,-2.55986,-3.08818
25.70000,-2.56986,-3.11569
25.80000,-2.57999,-3.14049
25.90000,-2.58999,-3.16450
26.00000,-2.59973,-3.18341
26.10000,-2.60986,-3.20643
26.20000,-2.61986,-3.23865
26.30000,-2.62959,-3.26187
26.40000,-2.63999,-3.27147
26.50000,-2.64986,-3.29650
26.60000,-2.65959,-3.32152
26.70000,-2.67026,-3.36878
26.80000,-2.67999,-3.39999
26.90000,-2.68986,-3.42074
27.00000,-2.69999,-3.46467
27.10000,-2.70973,-3.49434
27.20000,-2.71986,-3.53822
27.30000,-2.72986,-3.57908
27.40000,-2.73973,-3.60900
27.50000,-2.74973,-3.64629
27.60000,-2.75973,-3.67842
27.70000,-2.76973,-3.71616
27.80000,-2.77959,-3.75632
27.90000,-2.78999,-3.78710
28.00000,-2.79999,-3.81853
28.10000,-2.80959,-3.83550
28.20000,-2.82013,-3.87910
28.30000,-2.82986,-3.92066
28.40000,-2.83986,-3.94046
28.50000,-2.85013,-3.98524
28.60000,-2.85959,-4.00620
28.70000,-2.86973,-4.04710
28.80000,-2.87999,-4.08060
28.90000,-2.88959,-4.10324
29.00000,-2.89973,-3.95987
29.10000,-2.90986,-3.99539
29.20000,-2.91973,-4.02953
29.30000,-2.92999,-4.07639
29.40000,-2.93999,-4.12046
29.50000,-2.94986,-4.16379
29.60000,-2.95999,-4.19562
29.70000,-2.96999,-4.24681
29.80000,-2.97986,-4.27595
29.90000,-2.98973,-4.31500
30.00000,-2.99999,-4.35538
30.10000,-3.00973,-4.39118
30.20000,-3.01973,-4.43665
30.30000,-3.02986,-4.47583
30.40000,-3.03946,-4.51565
30.50000,-3.04986,-4.54428
30.60000,-3.05973,-4.57833
30.70000,-3.06973,-4.61684
30.80000,-3.07986,-4.65291
30.90000,-3.08986,-4.68733
31.00000,-3.09999,-4.69287
31.10000,-3.10986,-4.73223
31.20000,-3.11999,-4.75423
31.30000,-3.12973,-4.80220
31.40000,-3.13959,-4.83763
31.50000,-3.14999,-4.86719
31.60000,-3.15973,-4.88455
31.70000,-3.16986,-4.91493
31.80000,-3.17999,-4.95013
31.90000,-3.18973,-4.96554
32.00000,-3.19999,-4.99937
32.10000,-3.20999,-5.02786
32.20000,-3.21959,-5.06566
32.30000,-3.22999,-5.09549
32.40000,-3.23986,-5.12944
32.50000,-3.24973,-5.16406
32.60000,-3.25986,-5.17430
32.70000,-3.26973,-5.22557
32.80000,-3.27973,-5.25356
32.90000,-3.28973,-5.28727
33.00000,-3.29959,-5.31283
33.10000,-3.30973,-5.33155
33.20000,-3.31973,-5.36787
33.30000,-3.32999,-5.37980
33.40000,-3.33973,-5.39959
33.50000,-3.35013,-5.42336
33.60000,-3.35986,-5.44254
33.70000,-3.36946,-5.48076
33.80000,-3.38013,-5.51394
33.90000,-3.38986,-5.55012
34.00000,-3.39973,-5.58771
34.10000,-3.40999,-5.60943
34.20000,-3.41959,-5.64270
34.30000,-3.42973,-5.67420
34.40000,-3.43986,-5.70771
34.50000,-3.44972,-5.74481
34.60000,-3.45972,-5.77771
34.70000,-3.46986,-5.81728
34.80000,-3.47986,-5.86091
34.90000,-3.48986,-5.89347
35.00000,-3.49986,-5.92814
35.10000,-3.50986,-5.95413
35.20000,-3.51959,-5.98516
35.30000,-3.52999,-6.01511
35.40000,-3.53972,-6.03514
35.50000,-3.54959,-6.05499
35.60000,-3.55999,-6.01955
35.70000,-3.56972,-6.03727
35.80000,-3.57986,-6.07000
35.90000,-3.59012,-6.10371
36.00000,-3.59972,-6.14834
36.10000,-3.60986,-6.17339
36.20000,-3.61999,-6.22141
36.30000,-3.62986,-6.25722
36.40000,-3.63999,-6.28889
36.50000,-3.64986,-6.32467
36.60000,-3.65999,-6.35882
36.70000,-3.66972,-6.38172
36.80000,-3.67999,-6.40709
36.90000,-3.68972,-6.42988
37.00000,-3.69946,-6.43502
37.10000,-3.71012,-6.46907
37.20000,-3.71959,-6.49336
37.30000,-3.72986,-6.52389
37.40000,-3.73999,-6.55070
37.50000,-3.74972,-6.57109
37.60000,-3.75999,-6.55648
37.70000,-3.76999,-6.57536
37.80000,-3.77972,-6.58521
37.90000,-3.78986,-6.58318
38.00000,-3.79972,-6.57933
38.10000,-3.80959,-6.60227
38.20000,-3.81972,-6.64171
38.30000,-3.82972,-6.66367
38.40000,-3.83972,-6.69728
38.50000,-3.84972,-6.70785
38.60000,-3.85999,-6.72937
38.70000,-3.86986,-6.74568
38.80000,-3.87972,-6.75737
38.90000,-3.89012,-6.72097
39.00000,-3.89972,-6.73810
39.10000,-3.90986,-6.75577
39.20000,-3.91999,-6.77585
39.30000,-3.92946,-6.78052
39.40000,-3.93986,-6.81393
39.50000,-3.94986,-6.82535
39.60000,-3.95972,-6.83452
39.70000,-3.96972,-6.86812
39.80000,-3.97959,-6.88658
39.90000,-3.98986,-6.87676
40.00000,-3.99999,-6.88813
40.10000,-4.00999,-6.89920
40.20000,-4.01972,-6.91126
40.30000,-4.02986,-6.92424
40.40000,-4.03999,-6.94359
40.50000,-4.04972,-6.95333
40.60000,-4.05986,-6.96186
40.70000,-4.06986,-6.97189
40.80000,-4.07959,-6.97236
40.90000,-4.08999,-6.98281
41.00000,-4.09972,-7.00155
41.10000,-4.10959,-7.00750
41.20000,-4.12012,-7.02889
41.30000,-4.12986,-6.98096
41.40000,-4.13986,-6.99483
41.50000,-4.14999,-7.00405
41.60000,-4.15986,-7.00538
41.70000,-4.16986,-7.02895
41.80000,-4.17999,-7.03715
41.90000,-4.18999,-7.04348
42.00000,-4.19972,-7.05797
42.10000,-4.20986,-7.06260
42.20000,-4.21986,-7.07990
42.30000,-4.22959,-7.09584
42.40000,-4.23999,-7.11059
42.50000,-4.24972,-7.12583
42.60000,-4.25959,-7.13374
42.70000,-4.27026,-7.12518
42.80000,-4.27986,-7.14030
42.90000,-4.28972,-7.17103
43.00000,-4.29999,-7.18548
43.10000,-4.30972,-7.19852
43.20000,-4.31986,-7.20456
43.30000,-4.32986,-7.22172
43.40000,-4.33972,-7.24977
43.50000,-4.34972,-7.26830
43.60000,-4.35959,-7.27113
43.70000,-4.36972,-7.30156
43.80000,-4.37972,-7.31731
43.90000,-4.38986,-7.33280
44.00000,-4.39986,-7.35132
44.10000,-4.40959,-7.36234
44.20000,-4.42012,-7.38693
44.30000,-4.42986,-7.40680
44.40000,-4.43972,-7.43835
44.50000,-4.44999,-7.46563
44.60000,-4.45959,-7.47851
44.70000,-4.46972,-7.52558
44.80000,-4.47999,-7.53591
44.90000,-4.48959,-7.55268
45.00000,-4.49972,-7.57984
45.10000,-4.50986,-7.59033
45.20000,-4.51972,-7.60394
45.30000,-4.52986,-7.61938
45.40000,-4.53986,-7.63596
45.50000,-4.54986,-7.66086
45.60000,-4.55999,-7.67150
45.70000,-4.57012,-7.68464
45.80000,-4.57986,-7.70719
45.90000,-4.58959,-7.71532
46.00000,-4.59999,-7.73462
46.10000,-4.60959,-7.74385
46.20000,-4.61972,-7.77542
46.30000,-4.62986,-7.77984
46.40000,-4.63959,-7.79975
46.50000,-4.64999,-7.80509
46.60000,-4.66012,-7.81205
46.70000,-4.66986,-7.82354
46.80000,-4.67999,-7.84172
46.90000,-4.68986,-7.84408
47.00000,-4.69999,-7.85522
47.10000,-4.70999,-7.86948
47.20000,-4.71999,-7.88413
47.30000,-4.72972,-7.88596
47.40000,-4.73972,-7.84702
47.50000,-4.74999,-7.86022
47.60000,-4.75959,-7.85936
47.70000,-4.76972,-7.90123
47.80000,-4.77986,-7.90933
47.90000,-4.78959,-7.93359
48.00000,-4.79999,-7.94658
48.10000,-4.80999,-7.96023
48.20000,-4.81972,-7.97773
48.30000,-4.82986,-7.98874
48.40000,-4.83985,-8.00950
48.50000,-4.84985,-8.02459
48.60000,-4.85999,-8.02418
48.70000,-4.86972,-8.03951
48.80000,-4.87985,-8.05213
48.90000,-4.88972,-8.06897
49.00000,-4.89972,-8.08863
49.10000,-4.90959,-8.09454
49.20000,-4.91972,-8.11688
49.30000,-4.93012,-8.12997
49.40000,-4.93972,-8.13795
49.50000,-4.94999,-8.11257
49.60000,-4.95985,-8.05548
49.70000,-4.96959,-8.04690
49.80000,-4.98012,-8.04205
49.90000,-4.98985,-8.04788
50.00000,-4.99972,-8.06283
50.10000,-5.00985,-8.05325
50.20000,-5.01959,-8.06163
50.30000,-5.02972,-8.07228
50.40000,-5.03985,-8.05246
50.50000,-5.04985,-8.04459
50.60000,-5.05985,-8.04221
50.70000,-5.06985,-8.05787
50.80000,-5.07999,-8.02385
50.90000,-5.08999,-8.02671
51.00000,-5.09999,-8.03301
51.10000,-5.10985,-8.04932
51.20000,-5.11959,-8.05800
51.30000,-5.12999,-8.05288
51.40000,-5.13985,-8.05400
51.50000,-5.14959,-8.04039
51.60000,-5.15999,-8.03758
51.70000,-5.16972,-8.03790
51.80000,-5.17972,-8.03624
51.90000,-5.19012,-8.05483
52.00000,-5.19959,-8.06434
52.10000,-5.20985,-8.05283
52.20000,-5.21999,-8.06193
52.30000,-5.22999,-8.07545
52.40000,-5.23999,-8.09039
52.50000,-5.24985,-8.11804
52.60000,-5.25999,-8.07144
52.70000,-5.26972,-8.05989
52.80000,-5.27999,-8.06898
52.90000,-5.28972,-8.07370
53.00000,-5.29945,-8.10034
53.10000,-5.31012,-8.09760
53.20000,-5.31972,-8.09441
53.30000,-5.32999,-8.10762
53.40000,-5.33999,-8.12851
53.50000,-5.34959,-8.14381
53.60000,-5.35999,-8.15062
53.70000,-5.36999,-8.17079
53.80000,-5.37985,-8.19045
53.90000,-5.38985,-8.17669
54.00000,-5.39972,-8.19112
54.10000,-5.40972,-8.20264
54.20000,-5.41972,-8.22320
54.30000,-5.42972,-8.23937
54.40000,-5.43972,-8.25429
54.50000,-5.44959,-8.26919
54.60000,-5.45999,-8.25563
54.70000,-5.46985,-8.27101
54.80000,-5.47985,-8.26204
54.90000,-5.49012,-8.26888
55.00000,-5.49972,-8.26950
55.10000,-5.50985,-8.28227
55.20000,-5.51999,-8.29265
55.30000,-5.52945,-8.30705
55.40000,-5.53999,-8.31459
55.50000,-5.54985,-8.31904
55.60000,-5.55959,-8.32401
55.70000,-5.56985,-8.35176
55.80000,-5.57972,-8.36502
55.90000,-5.58985,-8.35746
56.00000,-5.59999,-8.36171
56.10000,-5.60999,-8.37754
56.20000,-5.61985,-8.39488
56.30000,-5.62985,-8.40266
56.40000,-5.63999,-8.42554
56.50000,-5.64972,-8.43193
56.60000,-5.65985,-8.42816
56.70000,-5.66985,-8.45799
56.80000,-5.67945,-8.46999
56.90000,-5.68985,-8.44898
57.00000,-5.69985,-8.46263
57.10000,-5.70959,-8.46814
57.20000,-5.71999,-8.20153
57.30000,-5.72985,-8.21247
57.40000,-5.73985,-8.22350
57.50000,-5.74999,-8.24340
57.60000,-5.75985,-8.26267
57.70000,-5.76972,-8.27816
57.80000,-5.77972,-8.29943
57.90000,-5.78985,-8.31987
58.00000,-5.79972,-8.31122
58.10000,-5.80985,-8.18734
58.20000,-5.81985,-8.22442
58.30000,-5.82959,-8.22492
58.40000,-5.83999,-8.23973
58.50000,-5.84985,-8.25310
58.60000,-5.85959,-8.25924
58.70000,-5.87012,-8.27100
58.80000,-5.87985,-8.28395
58.90000,-5.88985,-8.30786
59.00000,-5.89999,-8.32140
59.10000,-5.90972,-8.33989
59.20000,-5.91985,-8.34732
59.30000,-5.92985,-8.35118
59.40000,-5.93972,-8.37862
59.50000,-5.94972,-8.39740
59.60000,-5.95959,-8.40819
59.70000,-5.96972,-8.43011
59.80000,-5.97972,-8.43838
59.90000,-5.98999,-8.44789
60.00000,-5.99999,-8.46883
60.10000,-6.00959,-8.47451
60.20000,-6.01999,-8.49092
60.30000,-6.02985,-8.49278
60.40000,-6.03972,-8.50258
60.50000,-6.05012,-8.53174
60.60000,-6.05959,-8.53438
60.70000,-6.06972,-8.55696
60.80000,-6.07999,-8.57268
60.90000,-6.08959,-8.58853
61.00000,-6.09972,-8.57202
61.10000,-6.10985,-8.57457
61.20000,-6.11972,-8.59209
61.30000,-6.12972,-8.60435
61.40000,-6.13985,-8.61809
61.50000,-6.14985,-8.63090
61.60000,-6.15985,-8.63629
61.70000,-6.17012,-8.65411
61.80000,-6.17985,-8.66698
61.90000,-6.18958,-8.68309
62.00000,-6.20012,-8.68831
62.10000,-6.20972,-8.68473
62.20000,-6.21972,-8.70243
62.30000,-6.22985,-8.71274
62.40000,-6.23945,-8.72649
62.50000,-6.24998,-8.73373
62.60000,-6.25998,-8.74520
62.70000,-6.26985,-8.75267
62.80000,-6.27998,-8.76465
62.90000,-6.28985,-8.78201
63.00000,-6.29998,-8.79893
63.10000,-6.30998,-8.81166
63.20000,-6.31998,-8.82515
63.30000,-6.32972,-8.81300
63.40000,-6.33972,-8.83158
63.50000,-6.34998,-8.84152
63.60000,-6.35958,-8.84692
63.70000,-6.36972,-8.87346
63.80000,-6.37985,-8.88389
63.90000,-6.38958,-8.89208
64.00000,-6.39998,-8.90700
64.10001,-6.40998,-8.92498
64.20000,-6.41958,-8.93437
64.30000,-6.42998,-8.95441
64.40000,-6.43985,-8.96232
64.50000,-6.44972,-8.97039
64.60001,-6.45985,-8.97742
64.70000,-6.46972,-8.99076
64.80000,-6.47985,-8.99961
64.90000,-6.48972,-9.00802
65.00000,-6.49972,-9.01392
65.10001,-6.50972,-9.03072
65.20000,-6.51972,-9.03938
65.30000,-6.53012,-9.05707
65.40000,-6.53972,-9.05990
65.50000,-6.54998,-9.07054
65.60001,-6.56012,-9.05833
65.70001,-6.56958,-9.06983
65.80000,-6.57998,-9.08497
65.90000,-6.58985,-9.08690
66.00000,-6.59972,-9.10036
66.10001,-6.60972,-9.10475
66.20001,-6.61958,-9.11533
66.30000,-6.62972,-9.13343
66.40000,-6.63985,-9.14190
66.50000,-6.64985,-9.08752
66.60001,-6.65998,-9.03517
66.70001,-6.66985,-9.03989
66.80000,-6.67998,-9.04997
66.90000,-6.68998,-9.06095
67.00000,-6.69985,-9.06856
67.10001,-6.70985,-9.07785
67.20001,-6.71958,-9.07864
67.30000,-6.72998,-9.08604
67.40000,-6.73998,-9.07343
67.50000,-6.74958,-9.04806
67.60001,-6.75998,-8.79660
67.70001,-6.76972,-8.79881
67.80000,-6.77985,-8.81115
67.90000,-6.78998,-8.81894
68.00000,-6.79958,-8.83504
68.10001,-6.80985,-8.83313
68.20001,-6.81998,-8.85813
68.30000,-6.82985,-8.86192
68.40000,-6.83998,-8.87782
68.50000,-6.84985,-8.89760
68.60001,-6.85998,-8.91239
68.70001,-6.86972,-8.92035
68.80000,-6.87998,-8.93324
68.90000,-6.88972,-8.94785
69.00000,-6.89945,-8.96083
69.10001,-6.91012,-8.97315
69.20001,-6.91958,-8.98067
69.30000,-6.92985,-9.00410
69.40000,-6.93998,-9.00631
69.50000,-6.94958,-9.01961
69.60001,-6.95998,-9.02750
69.70001,-6.96998,-9.05077
69.80000,-6.97972,-9.07014
69.90000,-6.98985,-9.07651
70.00000,-6.99972,-9.09291
70.10001,-7.00972,-9.05169
70.20001,-7.01972,-9.08238
70.30000,-7.02972,-9.03806
70.40000,-7.03985,-9.03666
70.50000,-7.04972,-9.05869
70.60001,-7.05998,-9.06936
70.70001,-7.06985,-9.08061
70.80000,-7.07985,-9.09854
70.90000,-7.09012,-9.11153
71.00000,-7.09958,-9.12752
71.10001,-7.10985,-9.13578
71.20001,-7.11998,-9.15387
71.30000,-7.12958,-9.16269
71.40000,-7.13985,-9.17775
71.50000,-7.14985,-9.18556
71.60001,-7.15972,-9.19180
71.70001,-7.16985,-9.21096
71.80000,-7.17972,-9.22555
71.90000,-7.18985,-9.23402
72.00000,-7.19998,-9.24180
72.10001,-7.20998,-9.25345
72.20001,-7.21985,-9.26635
72.30000,-7.22985,-9.28077
72.40000,-7.24012,-9.29650
72.50000,-7.24985,-9.29978
72.60001,-7.25998,-9.30730
72.70001,-7.26985,-9.32972
72.80000,-7.27958,-9.30642
72.90000,-7.28998,-9.32009
73.00000,-7.29985,-9.31713
73.10001,-7.30958,-9.31493
73.20001,-7.31998,-9.32998
73.30000,-7.32985,-9.33419
73.40000,-7.33985,-9.34656
73.50000,-7.35012,-9.35218
73.60001,-7.35985,-9.33598
73.70001,-7.36985,-9.35946
73.80000,-7.37985,-9.36831
73.90000,-7.38985,-9.38231
74.00000,-7.39972,-9.38779
74.10001,-7.40972,-9.29334
74.20001,-7.41985,-9.25096
74.30000,-7.42958,-9.27066
74.40000,-7.43998,-9.29216
74.50000,-7.44985,-9.28448
74.60001,-7.45958,-9.30194
74.70001,-7.47012,-9.34001
74.80000,-7.47985,-9.34944
74.90000,-7.48985,-9.35669
75.00000,-7.49998,-9.37482
75.10001,-7.50971,-9.39529
75.20001,-7.51998,-9.40572
75.30000,-7.52985,-9.42292
75.40000,-7.53971,-9.43490
75.50000,-7.54971,-9.44663
75.60001,-7.55958,-9.44466
75.70001,-7.56971,-9.47640
75.80000,-7.57971,-9.49179
75.90000,-7.58985,-9.51106
76.00000,-7.59985,-9.53184
76.10001,-7.60971,-9.54776
76.20001,-7.62011,-9.52681
76.30000,-7.62985,-9.49893
76.40000,-7.63985,-9.51135
76.50000,-7.65011,-9.51269
76.60001,-7.65958,-9.52141
76.70001,-7.66971,-9.55446
76.80000,-7.67998,-9.56472
76.90000,-7.68945,-9.54557
77.00000,-7.69971,-9.56928
77.10001,-7.70985,-9.54516
77.20001,-7.71985,-9.56692
77.30000,-7.72998,-9.56971
77.40000,-7.73985,-9.58812
77.50000,-7.74998,-9.61327
77.60001,-7.75985,-9.61725
77.70001,-7.76985,-9.63067
77.80000,-7.77971,-9.64056
77.90000,-7.78971,-9.65840
78.00000,-7.80011,-9.68080
78.10001,-7.80971,-9.69488
78.20001,-7.81971,-9.72418
78.30000,-7.82985,-9.75285
78.40000,-7.83958,-9.77832
78.50000,-7.84998,-9.79272
78.60001,-7.85985,-9.80228
78.70001,-7.86985,-9.80169
78.80000,-7.87998,-9.82824
78.90000,-7.88971,-9.83694
79.00000,-7.89985,-9.85653
79.10001,-7.90985,-9.87147
79.20001,-7.91998,-9.88388
79.30000,-7.92985,-9.91031
79.40000,-7.93971,-9.88553
79.50000,-7.94985,-9.90553
79.60001,-7.95958,-9.91607
79.70001,-7.96971,-9.93920
79.80000,-7.97998,-9.94624
79.90000,-7.98971,-9.92626
80.00000,-8.00011,-9.94915
80.10001,-8.00998,-9.96722
80.20001,-8.01958,-9.98582
80.30000,-8.02998,-10.01111
80.40000,-8.03985,-10.02080
80.50001,-8.04985,-10.03569
80.60001,-8.05998,-10.04958
80.70001,-8.06958,-10.07512
80.80000,-8.07971,-10.09323
80.90000,-8.08971,-10.07445
81.00001,-8.09971,-10.09477
81.10001,-8.10958,-10.09737
81.20001,-8.11958,-10.11945
81.30000,-8.12998,-10.13930
81.40000,-8.13958,-10.14662
81.50001,-8.14998,-10.14393
81.60001,-8.15998,-10.16417
81.70001,-8.16958,-10.18491
81.80000,-8.18011,-10.19653
81.90000,-8.18985,-10.19368
82.00001,-8.19971,-9.84937
82.10001,-8.20985,-9.87252
82.20001,-8.21958,-9.89156
82.30000,-8.22971,-9.91920
82.40000,-8.23998,-9.93864
82.50001,-8.24971,-9.95129
82.60001,-8.25985,-9.96388
82.70001,-8.26998,-9.98911
82.80000,-8.27998,-10.01882
82.90000,-8.28998,-10.03766
83.00001,-8.29998,-10.05578
83.10001,-8.30998,-10.07527
83.20001,-8.31971,-10.07412
83.30000,-8.32998,-10.09849
83.40000,-8.33971,-10.10718
83.50001,-8.34958,-10.12900
83.60001,-8.35998,-10.14087
83.70001,-8.36971,-10.14929
83.80000,-8.37985,-10.16567
83.90000,-8.38998,-10.17351
84.00001,-8.39971,-10.16914
84.10001,-8.40985,-10.17756
84.20001,-8.41998,-10.20636
84.30000,-8.42985,-10.23606
84.40000,-8.43985,-10.25247
84.50001,-8.44971,-10.25456
84.60001,-8.45998,-10.26759
84.70001,-8.46971,-10.27409
84.80000,-8.47998,-10.26617
84.90000,-8.48971,-10.28062
85.00001,-8.49945,-10.29658
85.10001,-8.51011,-10.31329
85.20001,-8.51971,-10.31582
85.30000,-8.52985,-10.34341
85.40000,-8.53998,-10.33275
85.50001,-8.54971,-10.30923
85.60001,-8.55998,-10.32791
85.70001,-8.56998,-10.33404
85.80000,-8.57971,-10.30043
85.90000,-8.58985,-10.30951
86.00001,-8.59971,-10.31683
86.10001,-8.60971,-10.31959
86.20001,-8.61971,-10.34185
86.30000,-8.62958,-10.36015
86.40000,-8.63971,-10.36669
86.50001,-8.64971,-10.37219
86.60001,-8.65985,-10.36062
86.70001,-8.66985,-10.35642
86.80000,-8.67958,-10.36650
86.90000,-8.68998,-10.37562
87.00001,-8.69971,-10.25660
87.10001,-8.70985,-10.22687
87.20001,-8.72011,-10.22257
87.30000,-8.72958,-10.24464
87.40000,-8.73998,-10.25402
87.50001,-8.74985,-10.27078
87.60001,-8.75971,-10.26996
87.70001,-8.76971,-10.28698
87.80000,-8.77971,-10.31514
87.90000,-8.78985,-10.32999
88.00001,-8.79998,-10.34596
88.10001,-8.80998,-10.37841
88.20001,-8.81985,-10.36044
88.30000,-8.82998,-10.38707
88.40000,-8.84011,-10.39845
88.50001,-8.84985,-10.40815
88.60001,-8.85984,-10.41242
88.70001,-8.86985,-10.44125
88.80000,-8.87958,-10.45808
88.90000,-8.88985,-10.48214
89.00001,-8.89985,-10.49901
89.10001,-8.90971,-10.49958
89.20001,-8.91998,-10.52905
89.30000,-8.92984,-10.55039
89.40000,-8.93984,-10.55964
89.50001,-8.95011,-10.57923
89.60001,-8.95984,-10.57002
89.70001,-8.96985,-10.59087
89.80000,-8.97998,-10.58407
89.90000,-8.98984,-10.59610
90.00001,-8.99971,-10.57992
90.10001,-9.00984,-10.56981
90.20001,-9.01985,-10.59734
90.30000,-9.02958,-10.45790
90.40000,-9.03998,-10.47801
90.50001,-9.04971,-10.48981
90.60001,-9.05958,-10.48548
90.70001,-9.07011,-10.52058
90.80000,-9.07984,-10.51586
90.90000,-9.08971,-10.54506
91.00001,-9.09984,-10.54186
91.10001,-9.10958,-10.54662
91.20001,-9.11998,-10.56866
91.30000,-9.13011,-10.57912
91.40000,-9.13984,-10.58755
91.50001,-9.14971,-10.60471
91.60001,-9.15971,-10.61673
91.70001,-9.16971,-10.63973
91.80000,-9.17958,-10.64666
91.90000,-9.18984,-10.65937
92.00001,-9.19998,-10.67815
92.10001,-9.20958,-10.67912
92.20001,-9.22011,-10.69843
92.30000,-9.22984,-10.62283
92.40000,-9.23971,-10.61036
92.50001,-9.25011,-10.63274
92.60001,-9.25971,-10.62492
92.70001,-9.26971,-10.56327
92.80000,-9.27998,-10.50582
92.90000,-9.28958,-10.52254
93.00001,-9.29971,-10.50344
93.10001,-9.30984,-10.52761
93.20001,-9.31971,-10.54440
93.30000,-9.32984,-10.57103
93.40000,-9.33984,-10.52506
93.50001,-9.34998,-10.55660
93.60001,-9.35998,-10.55777
93.70001,-9.37011,-10.57772
93.80000,-9.37984,-10.59951
93.90000,-9.38971,-10.61817
94.00001,-9.40011,-10.59814
94.10001,-9.40971,-10.25159
94.20001,-9.41971,-10.27861
94.30000,-9.42984,-10.31787
94.40000,-9.43944,-10.33848
94.50001,-9.44998,-10.37688
94.60001,-9.45998,-10.40863
94.70001,-9.46971,-10.40629
94.80000,-9.47998,-10.41174
94.90000,-9.48984,-10.38800
95.00001,-9.49984,-10.41467
95.10001,-9.50998,-10.43196
95.20001,-9.52011,-10.45223
95.30000,-9.52984,-10.47985
95.40000,-9.53971,-10.43538
95.50001,-9.54998,-10.41583
95.60001,-9.55958,-10.40889
95.70001,-9.56984,-10.40114
95.80000,-9.57998,-10.41640
95.90000,-9.58958,-10.43164
96.00001,-9.59998,-10.45300
96.10001,-9.60998,-10.46713
96.20001,-9.61958,-10.48853
96.30000,-9.62998,-10.51387
96.40000,-9.63998,-10.51719
96.50001,-9.64971,-10.53611
96.60001,-9.65984,-10.54750
96.70001,-9.66958,-10.52397
96.80000,-9.67971,-10.57115
96.90000,-9.68971,-10.55044
97.00001,-9.69971,-10.58558
97.10001,-9.70971,-10.60189
97.20001,-9.71971,-10.63945
97.30000,-9.72998,-10.65710
97.40000,-9.73971,-10.68119
97.50001,-9.74998,-10.70432
97.60001,-9.75984,-10.71726
97.70001,-9.76958,-10.72721
97.80000,-9.78011,-10.75730
97.90000,-9.78984,-10.78523
98.00001,-9.79984,-10.80490
98.10001,-9.80998,-10.81018
98.20001,-9.81958,-10.81417
98.30000,-9.82971,-10.83879
98.40000,-9.83998,-10.85849
98.50001,-9.84971,-10.87952
98.60001,-9.85971,-10.89726
98.70001,-9.86984,-10.92035
98.80000,-9.87998,-10.92624
98.90000,-9.88984,-10.94048
99.00001,-9.89998,-10.95457
99.10001,-9.90984,-10.96069
99.20001,-9.91958,-10.97783
99.30000,-9.92998,-10.94891
99.40000,-9.93984,-10.91851
99.50001,-9.94958,-10.87662
99.60001,-9.96011,-10.88973
99.70001,-9.96971,-10.92180
99.80000,-9.97984,-10.94729
99.90000,-9.99011,-10.96941
100.00001,-9.99971,-10.97102
100.10001,-10.00984,-10.99330
100.20001,-10.01998,-11.00967
100.30000,-10.02998,-11.00766
100.40000,-10.04011,-11.01979
100.50001,-10.04984,-10.94702
100.60001,-10.05984,-10.96115
100.70001,-10.06958,-10.99003
100.80000,-10.07998,-10.99410
100.90000,-10.08971,-11.01436
101.00001,-10.09958,-11.03821
101.10001,-10.11011,-11.03093
101.20001,-10.11971,-11.06455
101.30000,-10.12984,-11.10234
101.40000,-10.13998,-11.11387
101.50001,-10.14958,-11.13518
101.60001,-10.15984,-11.15918
101.70001,-10.16998,-11.09667
101.80000,-10.17971,-10.85391
101.90000,-10.18984,-10.88688
102.00001,-10.19971,-10.91781
102.10001,-10.20971,-10.94459
102.20001,-10.21971,-10.96930
102.30000,-10.22971,-11.00188
102.40000,-10.23984,-11.02376
102.50001,-10.24957,-11.04342
102.60001,-10.25984,-11.06106
102.70001,-10.26984,-11.09555
102.80000,-10.27984,-11.13487
102.90000,-10.29011,-11.16722
103.00001,-10.29971,-11.18820
103.10001,-10.30984,-11.20239
103.20001,-10.31998,-11.23846
103.30000,-10.32958,-11.23558
103.40000,-10.33997,-11.26531
103.50001,-10.34984,-11.23870
103.60001,-10.35971,-11.25187
103.70001,-10.36971,-11.28027
103.80000,-10.37971,-11.31160
103.90000,-10.38984,-11.34516
104.00001,-10.39984,-11.38113
104.10001,-10.40997,-11.40459
104.20001,-10.41984,-11.43675
104.30000,-10.42984,-11.40533
104.40000,-10.44011,-11.44080
104.50001,-10.44984,-11.47444
104.60001,-10.45997,-11.50996
104.70001,-10.46984,-11.51133
104.80000,-10.47957,-11.54784
104.90000,-10.48997,-11.58510
105.00001,-10.49971,-11.61103
105.10001,-10.50957,-11.63555
105.20001,-10.51997,-11.67261
105.30000,-10.52984,-11.69126
105.40000,-10.53984,-11.70626
105.50001,-10.54997,-11.68708
105.60001,-10.55984,-11.65355
105.70001,-10.56984,-11.66210
105.80000,-10.57984,-11.64525
105.90000,-10.58997,-11.66377
106.00001,-10.59971,-11.68203
106.10001,-10.60984,-11.68763
106.20001,-10.61984,-11.70840
106.30000,-10.62957,-11.74722
106.40000,-10.63997,-11.76846
106.50001,-10.64984,-11.80149
106.60001,-10.65957,-11.80904
106.70001,-10.67011,-11.83657
106.80000,-10.67984,-11.86704
106.90000,-10.68984,-11.87941
107.00001,-10.69997,-11.90123
107.10001,-10.70971,-11.91096
107.20001,-10.71984,-11.91305
107.30000,-10.72984,-11.91378
107.40000,-10.73971,-11.91198
107.50001,-10.74971,-11.87952
107.60001,-10.75957,-11.87961
107.70001,-10.76971,-11.91221
107.80000,-10.77971,-11.93407
107.90000,-10.78997,-11.94797
108.00001,-10.79984,-11.96684
108.10001,-10.80957,-11.97207
108.20001,-10.82011,-12.00743
108.30000,-10.82997,-12.01683
108.40000,-10.83971,-12.01712
108.50001,-10.85011,-12.03761
108.60001,-10.85971,-12.03235
108.70001,-10.86971,-12.05942
108.80000,-10.87997,-12.05050
108.90000,-10.88971,-12.06885
109.00001,-10.89971,-12.08573
109.10001,-10.90984,-12.09009
109.20001,-10.91984,-12.11203
109.30000,-10.92984,-12.12505
109.40000,-10.93997,-12.14029
109.50001,-10.94997,-12.16145
109.60001,-10.95997,-12.14492
109.70001,-10.97011,-12.15834
109.80000,-10.97984,-12.13934
109.90000,-10.98957,-12.16985
110.00001,-10.99997,-12.19670
110.10001,-11.00971,-12.20683
110.20001,-11.01971,-12.25005
110.30000,-11.02997,-12.27109
110.40000,-11.03957,-12.25837
110.50001,-11.04997,-12.28584
110.60001,-11.05997,-12.23818
110.70001,-11.06984,-12.25687
110.80000,-11.07984,-12.12271
110.90000,-11.08984,-12.15876
111.00001,-11.09984,-12.16105
111.10001,-11.10997,-12.19396
111.20001,-11.12011,-12.22413
111.30000,-11.12984,-12.23373
111.40000,-11.13971,-12.22615
111.50001,-11.15011,-12.25528
111.60001,-11.15957,-12.24740
111.70001,-11.16971,-12.12719
111.80000,-11.17997,-11.61898
111.90000,-11.18971,-11.64490
112.00001,-11.20011,-11.66435
112.10001,-11.21011,-11.69885
112.20001,-11.21971,-11.70163
112.30000,-11.23011,-11.73128
112.40000,-11.23997,-11.75823
112.50001,-11.24971,-11.78877
112.60001,-11.25984,-11.80087
112.70001,-11.26971,-11.81710
112.80000,-11.27984,-11.86464
112.90001,-11.28971,-11.90053
113.00001,-11.29984,-11.92341
113.10001,-11.30971,-11.97207
113.20001,-11.31957,-11.99180
113.30000,-11.32997,-12.03236
113.40001,-11.33971,-12.06579
113.50001,-11.34997,-12.08629
113.60001,-11.35997,-12.12292
113.70001,-11.36957,-12.15146
113.80000,-11.37997,-12.18624
113.90001,-11.38984,-12.21998
114.00001,-11.39971,-12.25341
114.10001,-11.40984,-12.28635
114.20001,-11.41957,-12.32035
114.30000,-11.42971,-12.30954
114.40001,-11.43984,-12.32744
114.50001,-11.44984,-12.36708
114.60001,-11.45984,-12.37054
114.70001,-11.46984,-12.39432
114.80000,-11.47997,-12.41640
114.90001,-11.48997,-12.45884
115.00001,-11.50011,-12.42531
115.10001,-11.50997,-12.46932
115.20001,-11.51970,-12.48363
115.30000,-11.53011,-12.51436
115.40001,-11.53984,-12.55083
115.50001,-11.54957,-12.58551
115.60001,-11.55997,-12.60485
115.70001,-11.56970,-12.57454
115.80000,-11.57971,-12.61408
115.90001,-11.59011,-12.64642
116.00001,-11.59970,-12.66986
116.10001,-11.60984,-12.68921
116.20001,-11.62011,-12.70643
116.30000,-11.62984,-12.72057
116.40001,-11.63984,-12.71512
116.50001,-11.64997,-12.71715
116.60001,-11.65997,-12.73468
116.70001,-11.66970,-12.75179
116.80000,-11.68010,-12.78693
116.90001,-11.68984,-12.79788
117.00001,-11.69957,-12.79787
117.10001,-11.71024,-12.83703
117.20001,-11.71970,-12.85834
117.30000,-11.72984,-12.89499
117.40001,-11.73997,-12.92731
117.50001,-11.74957,-12.95027
117.60001,-11.75997,-12.99050
117.70001,-11.77010,-13.03435
117.80000,-11.77984,-13.06147
117.90001,-11.78984,-13.09280
118.00001,-11.79984,-13.12667
118.10001,-11.80970,-13.15547
118.20001,-11.81970,-13.19293
118.30000,-11.82970,-13.22574
118.40001,-11.83970,-13.21413
118.50001,-11.84957,-13.25959
118.60001,-11.85997,-13.28592
118.70001,-11.86984,-13.33959
118.80000,-11.87970,-13.36714
118.90001,-11.89010,-13.37887
119.00001,-11.89970,-13.41055
119.10001,-11.90984,-13.41904
119.20001,-11.91997,-13.45829
119.30000,-11.92957,-13.47109
119.40001,-11.93984,-13.26133
119.50001,-11.94997,-13.31529
119.60001,-11.95970,-13.36711
119.70001,-11.96970,-13.42638
119.80000,-11.97970,-13.48130
119.90001,-11.98997,-13.52874
120.00001,-11.99997,-13.55439
120.10001,-12.01010,-13.58691
120.20001,-12.01984,-13.60752
120.30000,-12.02970,-13.63845
120.40001,-12.04010,-13.68965
120.50001,-12.04984,-13.71690
120.60001,-12.05984,-13.71966
120.70001,-12.06997,-13.70706
120.80000,-12.07957,-13.67968
120.90001,-12.08984,-13.71646
121.00001,-12.09984,-13.74179
121.10001,-12.10970,-13.76528
121.20001,-12.11997,-13.81908
121.30000,-12.12984,-13.83489
121.40001,-12.13984,-13.86963
121.50001,-12.14997,-13.91468
121.60001,-12.15984,-13.90033
121.70001,-12.16984,-13.67793
121.80000,-12.17997,-13.73656
121.90001,-12.18997,-13.74156
122.00001,-12.19984,-13.77527
122.10001,-12.20984,-13.81080
122.20001,-12.21997,-13.80438
122.30000,-12.22970,-13.83496
122.40001,-12.23997,-13.88216
122.50001,-12.24984,-13.92036
122.60001,-12.25970,-13.94351
122.70001,-12.27010,-13.99876
122.80000,-12.27997,-14.02734
122.90001,-12.28984,-14.05410
123.00001,-12.29997,-14.08851
123.10001,-12.30970,-14.11669
123.20001,-12.31997,-14.11950
123.30000,-12.32997,-14.09418
123.40001,-12.33984,-14.13482
123.50001,-12.34984,-14.13467
123.60001,-12.35957,-14.07691
123.70001,-12.36984,-13.96273
123.80000,-12.37970,-13.99833
123.90001,-12.38984,-14.03314
124.00001,-12.39984,-14.07250
124.10001,-12.40957,-14.08029
124.20001,-12.41997,-14.07948
124.30000,-12.42997,-14.10887
124.40001,-12.43997,-14.14204
124.50001,-12.45010,-14.17332
124.60001,-12.45970,-14.18021
124.70001,-12.46984,-14.16176
124.80000,-12.47997,-14.07678
124.90001,-12.48970,-14.08149
125.00001,-12.49984,-14.14129
125.10001,-12.50997,-14.17411
125.20001,-12.51984,-14.21417
125.30000,-12.52997,-14.26116
125.40001,-12.53997,-14.30349
125.50001,-12.54997,-14.33444
125.60001,-12.55997,-14.36415
125.70001,-12.57010,-14.40813
125.80000,-12.57984,-14.42539
125.90001,-12.58957,-14.46975
126.00001,-12.60010,-14.51329
126.10001,-12.60970,-14.35276
126.20001,-12.61970,-14.35735
126.30000,-12.62984,-14.40382
126.40001,-12.63944,-14.45454
126.50001,-12.64997,-14.50671
126.60001,-12.65997,-14.54406
126.70001,-12.66984,-14.47003
126.80000,-12.67997,-14.52684
126.90001,-12.68984,-14.55899
127.00001,-12.69984,-14.59160
127.10001,-12.70984,-14.62972
127.20001,-12.72010,-14.68064
127.30000,-12.72984,-14.71678
127.40001,-12.73984,-14.74737
127.50001,-12.74997,-14.77051
127.60001,-12.75970,-14.79292
127.70001,-12.76970,-14.84880
127.80000,-12.77984,-14.88178
127.90001,-12.78970,-14.92172
128.00000,-12.80010,-14.95436
128.10001,-12.81010,-14.98226
128.20002,-12.81970,-15.03243
128.30000,-12.82997,-15.06855
128.40001,-12.83997,-15.10926
128.50000,-12.84984,-15.14195
128.60001,-12.85997,-15.18074
128.70002,-12.86970,-15.21668
128.80000,-12.87997,-15.26687
128.90001,-12.88984,-15.30590
129.00000,-12.89984,-15.33562
129.10001,-12.90984,-15.33764
129.20002,-12.91970,-15.09585
129.30000,-12.93010,-15.17105
129.40001,-12.93983,-15.19837
129.50000,-12.94997,-15.24322
129.60001,-12.95997,-15.29954
129.70002,-12.96957,-15.34382
129.80000,-12.97997,-15.34908
129.90001,-12.98983,-15.39596
130.00000,-12.99970,-15.43888
130.10001,-13.00984,-15.45992
130.20002,-13.01970,-15.48237
130.30000,-13.02970,-15.52641
130.40001,-13.03997,-15.55051
130.50000,-13.04997,-15.57217
130.60001,-13.05983,-15.61813
130.70002,-13.06983,-15.65170
130.80000,-13.07984,-15.50279
130.90001,-13.08983,-15.52644
131.00000,-13.09997,-15.57429
131.10000,-13.10997,-15.61753
131.20002,-13.11970,-15.67080
131.30000,-13.13010,-15.72020
131.40002,-13.13997,-15.76386
131.50000,-13.14970,-15.81888
131.60000,-13.15997,-15.65498
131.70002,-13.16970,-15.70699
131.80000,-13.17970,-15.50127
131.90002,-13.19010,-15.57417
132.00000,-13.19970,-15.61529
132.10000,-13.20983,-15.69252
132.20002,-13.21997,-15.76301
132.30000,-13.22997,-15.83877
132.40002,-13.23997,-15.90090
132.50000,-13.24997,-15.92932
132.60000,-13.25997,-15.97401
132.70002,-13.26970,-16.04749
132.80000,-13.28010,-16.10026
132.90002,-13.28970,-16.03879
133.00000,-13.29943,-16.05363
133.10000,-13.31010,-16.10349
133.20002,-13.31970,-16.15116
133.30000,-13.32983,-16.17974
133.40002,-13.34010,-16.21108
133.50000,-13.34970,-16.21825
133.60000,-13.36010,-16.05132
133.70002,-13.36997,-16.11491
133.80000,-13.37957,-16.15290
133.90002,-13.38983,-16.21318
134.00000,-13.39983,-16.27923
134.10000,-13.40970,-16.32221
134.20002,-13.41983,-16.35531
134.30000,-13.42970,-16.40914
134.40002,-13.43970,-16.45275
134.50000,-13.44970,-16.49592
134.60000,-13.45997,-16.53145
134.70002,-13.46983,-16.41959
134.80000,-13.47983,-16.43070
134.90002,-13.49010,-16.48786
135.00000,-13.49983,-16.50788
135.10000,-13.50997,-16.54773
135.20002,-13.51997,-16.58443
135.30000,-13.52957,-16.60937
135.40002,-13.53997,-16.63094
135.50000,-13.54983,-16.66167
135.60000,-13.55970,-16.68859
135.70002,-13.56970,-16.73177
135.80000,-13.57970,-16.76788
135.90002,-13.58983,-16.82286
136.00000,-13.59997,-16.85783
136.10000,-13.61010,-16.89908
136.20002,-13.61997,-16.87935
136.30000,-13.62983,-16.92928
136.40002,-13.63997,-16.98026
136.50000,-13.64983,-17.02422
136.60000,-13.65997,-17.01243
136.70002,-13.66983,-17.06589
136.80000,-13.67970,-17.09653
136.90002,-13.68997,-17.15533
137.00000,-13.69983,-17.16433
137.10000,-13.70970,-17.17780
137.20002,-13.71997,-17.12107
137.30000,-13.72983,-17.13543
137.40002,-13.73970,-17.19139
137.50000,-13.75010,-17.14803
137.60000,-13.75983,-16.92151
137.70002,-13.76997,-17.02641
137.80000,-13.77997,-17.07518
137.90002,-13.78997,-17.12890
138.00000,-13.79983,-17.17413
138.10000,-13.80983,-17.20857
138.20002,-13.81983,-17.30052
138.30000,-13.82957,-17.37277
138.40002,-13.83997,-17.42011
138.50000,-13.84983,-17.42805
138.60000,-13.85957,-17.45034
138.70002,-13.87010,-17.49471
138.80000,-13.87983,-17.43454
138.90002,-13.88983,-17.53025
139.00000,-13.90010,-17.59333
139.10000,-13.90970,-17.65548
139.20002,-13.91997,-17.65362
139.30000,-13.92997,-17.63371
139.40002,-13.93983,-17.69939
139.50000,-13.94970,-17.78643
139.60000,-13.95970,-17.84924
139.70002,-13.96970,-17.91889
139.80000,-13.97957,-17.93345
139.90002,-13.98983,-17.96229
140.00000,-13.99983,-18.01027
140.10000,-14.00957,-17.89037
140.20002,-14.02010,-17.91782
140.30000,-14.02983,-17.97451
140.40002,-14.03983,-18.00974
140.50000,-14.05010,-18.07859
140.60000,-14.05970,-18.10300
140.70002,-14.06970,-18.14745
140.80000,-14.07997,-18.17148
140.90002,-14.08957,-18.20499
141.00000,-14.09970,-18.24042
141.10000,-14.10983,-18.29875
141.20002,-14.11970,-18.35959
141.30000,-14.12997,-18.41716
141.40002,-14.13997,-18.44963
141.50000,-14.14997,-18.50363
141.60000,-14.15997,-18.30021
141.70002,-14.16996,-17.46481
141.80000,-14.17983,-17.57148
141.90002,-14.18970,-17.58492
142.00000,-14.20010,-17.59834
142.10000,-14.20970,-17.64728
142.20002,-14.21983,-17.74596
142.30000,-14.22983,-17.86020
142.40002,-14.23957,-17.90964
142.50000,-14.24997,-17.97106
142.60000,-14.25997,-18.04349
142.70002,-14.26983,-18.12101
142.80000,-14.27997,-18.16150
142.90002,-14.28983,-18.20835
143.00000,-14.30010,-18.22874
143.10000,-14.31010,-18.30613
143.20002,-14.31996,-18.32187
143.30000,-14.32983,-18.23744
143.40002,-14.33970,-18.19093
143.50000,-14.34997,-18.25836
143.60000,-14.35970,-18.32964
143.70002,-14.36970,-18.41345
143.80000,-14.37997,-18.50278
143.90002,-14.38957,-18.56101
144.00000,-14.39996,-18.59250
144.10000,-14.40996,-18.65970
144.20002,-14.41970,-18.74539
144.30000,-14.43010,-18.81690
144.40002,-14.43983,-18.87843
144.50000,-14.44983,-18.92083
144.60000,-14.45983,-18.98567
144.70002,-14.46970,-19.04234
144.80000,-14.47983,-19.10933
144.90002,-14.48970,-19.16042
145.00000,-14.49970,-19.22080
145.10000,-14.50970,-19.25940
145.20002,-14.51970,-19.22654
145.30000,-14.52996,-19.24572
145.40002,-14.53970,-19.28337
145.50000,-14.54996,-19.34298
145.60000,-14.55996,-19.35453
145.70002,-14.56956,-19.06840
145.80000,-14.58023,-19.08275
145.90002,-14.58983,-18.98234
146.00000,-14.59970,-19.05997
146.10000,-14.60996,-18.96401
146.20002,-14.61956,-18.99526
146.30000,-14.62970,-19.05372
146.40002,-14.63996,-19.08125
146.50000,-14.64983,-19.04369
146.60000,-14.65983,-19.02479
146.70002,-14.66996,-19.06474
146.80000,-14.67996,-19.06885
146.90002,-14.68996,-19.03552
147.00000,-14.70010,-18.76768
147.10000,-14.71010,-18.64524
147.20002,-14.71983,-18.71087
147.30000,-14.73010,-18.77017
147.40002,-14.73983,-18.80777
147.50000,-14.74970,-18.87798
147.60000,-14.75996,-18.84674
147.70002,-14.76970,-18.85090
147.80000,-14.77983,-18.86538
147.90002,-14.79010,-18.92244
148.00000,-14.79970,-18.93156
148.10000,-14.80996,-19.00963
148.20002,-14.82010,-18.99412
148.30000,-14.82996,-19.03276
148.40002,-14.83996,-19.04425
148.50000,-14.84983,-19.10666
148.60000,-14.85996,-19.14362
148.70002,-14.86983,-19.20456
148.80000,-14.88010,-19.28927
148.90002,-14.88970,-19.35574
149.00000,-14.89943,-19.42309
149.10000,-14.91010,-19.43748
149.20002,-14.91970,-19.48603
149.30000,-14.92996,-19.59226
149.40002,-14.94010,-19.70218
149.50000,-14.94970,-19.77792
149.60000,-14.95996,-19.77067
149.70002,-14.97010,-19.68766
149.80000,-14.97970,-19.79862
149.90002,-14.98983,-19.92769
150.00000,-14.99970,-20.00218
150.10000,-15.00970,-20.05717
150.20002,-15.01970,-20.14030
150.30000,-15.02970,-20.16309
150.40002,-15.03983,-20.17653
150.50000,-15.04970,-20.21442
150.60000,-15.05996,-20.24850
150.70002,-15.06983,-20.30157
150.80000,-15.07983,-20.25572
150.90002,-15.09010,-20.38300
151.00000,-15.09983,-20.43213
151.10000,-15.10996,-20.50387
151.20002,-15.12010,-20.50235
151.30000,-15.12956,-20.53493
151.40002,-15.13996,-20.58721
151.50000,-15.14983,-20.60515
151.60000,-15.15970,-20.65369
151.70002,-15.16983,-20.66370
151.80000,-15.17970,-20.70461
151.90002,-15.18996,-20.78987
152.00000,-15.19996,-20.81480
152.10000,-15.21010,-20.88502
152.20002,-15.21996,-20.92591
152.30000,-15.22996,-20.96990
152.40002,-15.24010,-21.05767
152.50000,-15.24983,-21.11305
152.60000,-15.25996,-21.15606
152.70002,-15.26983,-21.19421
152.80000,-15.27956,-21.23571
152.90002,-15.28996,-21.17652
153.00000,-15.29983,-21.22334
153.10000,-15.30970,-21.26274
153.20002,-15.31996,-21.36776
153.30000,-15.32983,-21.40330
153.40002,-15.33983,-21.45416
153.50000,-15.35010,-21.47191
153.60000,-15.35996,-21.52131
153.70002,-15.36996,-21.60168
153.80000,-15.37996,-21.55572
153.90002,-15.38996,-21.60775
154.00000,-15.39983,-21.64966
154.10000,-15.40983,-21.39276
154.20002,-15.41983,-21.46832
154.30000,-15.42956,-21.53390
154.40002,-15.43996,-21.61356
154.50000,-15.44983,-21.59299
154.60000,-15.45956,-21.69174
154.70002,-15.47023,-21.78383
154.80000,-15.47983,-21.72511
154.90002,-15.48983,-21.82879
155.00000,-15.50010,-21.95521
155.10000,-15.50970,-22.02965
155.20002,-15.51996,-22.14441
155.30000,-15.53010,-22.20123
155.40002,-15.53983,-22.28897
155.50000,-15.54970,-22.38880
155.60000,-15.55956,-22.48438
155.70002,-15.56970,-22.58798
155.80000,-15.57969,-22.69873
155.90002,-15.58996,-22.75544
156.00000,-15.59996,-22.83467
156.10000,-15.60956,-22.92122
156.20002,-15.62009,-23.03872
156.30000,-15.62996,-23.04793
156.40002,-15.63983,-23.14164
156.50000,-15.65010,-23.23615
156.60000,-15.65970,-23.28972
156.70002,-15.66970,-23.38318
156.80000,-15.67996,-23.46578
156.90002,-15.68970,-23.54828
157.00000,-15.69983,-23.44768
157.10000,-15.70996,-23.41953
157.20002,-15.71983,-23.54686
157.30000,-15.72983,-23.68272
157.40002,-15.73983,-23.80365
157.50000,-15.74983,-23.91068
157.60000,-15.75996,-23.99854
157.70002,-15.77009,-24.08559
157.80000,-15.77969,-24.13815
157.90002,-15.78970,-24.22133
158.00000,-15.80009,-24.26344
158.10000,-15.80969,-24.35571
158.20002,-15.81969,-24.44897
158.30000,-15.82996,-24.53876
158.40002,-15.83956,-24.57802
158.50000,-15.84996,-24.40785
158.60000,-15.85996,-24.49123
158.70002,-15.86983,-24.45316
158.80000,-15.87983,-24.45721
158.90002,-15.88983,-24.53358
159.00000,-15.89996,-24.63125
159.10000,-15.90996,-24.69997
159.20002,-15.92010,-24.81275
159.30000,-15.92983,-24.88546
159.40002,-15.93969,-24.98751
159.50000,-15.95009,-25.02395
159.60000,-15.95969,-25.07029
159.70002,-15.96970,-25.00139
159.80000,-15.97996,-25.08596
159.90002,-15.98969,-25.15788
160.00000,-16.00009,-25.25494
160.10000,-16.01009,-25.22383
160.20002,-16.01969,-25.16148
160.26400,-16.02636,-25.16216
