Time,Extension,Load
(sec),(mm),(N)
0.00000,0.00000,-0.00522
0.10000,-0.00213,-0.00533
0.20000,-0.01227,-0.00610
0.30000,-0.02560,-0.00844
0.40000,-0.03720,-0.00797
0.50000,-0.04907,-0.00790
0.60000,-0.05920,-0.00910
0.70000,-0.06973,-0.00995
0.80000,-0.07987,-0.01175
0.90000,-0.08947,-0.01157
1.00000,-0.09987,-0.01189
1.10000,-0.10987,-0.01303
1.20000,-0.11987,-0.01362
1.30000,-0.13000,-0.01382
1.40000,-0.13973,-0.01432
1.50000,-0.15000,-0.01464
1.60000,-0.16000,-0.01506
1.70000,-0.16987,-0.01571
1.80000,-0.17987,-0.01640
1.90000,-0.18987,-0.01679
2.00000,-0.20013,-0.01624
2.10000,-0.20987,-0.01679
2.20000,-0.22000,-0.01643
2.30000,-0.23000,-0.01767
2.40000,-0.23960,-0.01875
2.50000,-0.25013,-0.01872
2.60000,-0.26000,-0.01886
2.70000,-0.26987,-0.01962
2.80000,-0.28000,-0.01986
2.90000,-0.28960,-0.02080
3.00000,-0.29973,-0.02114
3.10000,-0.30987,-0.02164
3.20000,-0.31973,-0.02095
3.30000,-0.32973,-0.02238
3.40000,-0.33973,-0.02356
3.50000,-0.35000,-0.02376
3.60000,-0.36013,-0.02452
3.70000,-0.37013,-0.02567
3.80000,-0.38000,-0.02602
3.90000,-0.38960,-0.02742
4.00000,-0.40000,-0.02862
4.10000,-0.40987,-0.03140
4.20000,-0.41973,-0.03287
4.30000,-0.43000,-0.03334
4.40000,-0.43973,-0.03368
4.50000,-0.44973,-0.03378
4.60000,-0.46000,-0.03523
4.70000,-0.46987,-0.03566
4.80000,-0.48013,-0.03596
4.90000,-0.49013,-0.03641
5.00000,-0.50000,-0.03731
5.10000,-0.51000,-0.03673
5.20000,-0.52000,-0.03706
5.30000,-0.53000,-0.03748
5.40000,-0.53973,-0.03885
5.50000,-0.55013,-0.04002
5.60000,-0.55973,-0.04030
5.70000,-0.56947,-0.03944
5.80000,-0.58027,-0.03888
5.90000,-0.58973,-0.03970
6.00000,-0.60000,-0.03994
6.10000,-0.61013,-0.03987
6.20000,-0.61973,-0.04128
6.30000,-0.63000,-0.04144
6.40000,-0.64000,-0.04161
6.50000,-0.64987,-0.04226
6.60000,-0.65987,-0.04187
6.70000,-0.66973,-0.04287
6.80000,-0.67973,-0.04253
6.90000,-0.68986,-0.04226
7.00000,-0.69973,-0.04310
7.10000,-0.70986,-0.04353
7.20000,-0.71973,-0.04528
7.30000,-0.73000,-0.04621
7.40000,-0.73986,-0.04791
7.50000,-0.74986,-0.04781
7.60000,-0.76026,-0.04860
7.70000,-0.76973,-0.05103
7.80000,-0.77986,-0.05251
7.90000,-0.79013,-0.05346
8.00000,-0.79960,-0.05458
8.10000,-0.81000,-0.05516
8.20000,-0.81986,-0.05607
8.30000,-0.82973,-0.05722
8.40000,-0.83986,-0.05914
8.50000,-0.84973,-0.06125
8.60000,-0.86000,-0.06222
8.70000,-0.87000,-0.06329
8.80000,-0.88013,-0.06435
8.90000,-0.88986,-0.06626
9.00000,-0.89986,-0.06745
9.10000,-0.91013,-0.06825
9.20000,-0.91986,-0.07071
9.30000,-0.92986,-0.07117
9.40000,-0.94000,-0.07181
9.50000,-0.94960,-0.07387
9.60000,-0.95986,-0.07526
9.70000,-0.96973,-0.07423
9.80000,-0.97973,-0.07651
9.90000,-0.99000,-0.07926
10.00000,-0.99986,-0.08143
10.10000,-1.00986,-0.08309
10.20000,-1.02013,-0.08529
10.30000,-1.03000,-0.08733
10.40000,-1.04000,-0.08763
10.50000,-1.05000,-0.08854
10.60000,-1.05986,-0.09063
10.70000,-1.06973,-0.08967
10.80000,-1.07986,-0.09115
10.90000,-1.09000,-0.09345
11.00000,-1.09960,-0.09475
11.10000,-1.11013,-0.09591
11.20000,-1.11986,-0.09869
11.30000,-1.12973,-0.10127
11.40000,-1.14026,-0.10357
11.50000,-1.14986,-0.10544
11.60000,-1.15986,-0.10730
11.70000,-1.17013,-0.10962
11.80000,-1.17973,-0.11202
11.90000,-1.18986,-0.11593
12.00000,-1.20000,-0.11855
12.10000,-1.20973,-0.12098
12.20000,-1.21973,-0.12429
12.30000,-1.22960,-0.12594
12.40000,-1.23973,-0.12751
12.50000,-1.24973,-0.12769
12.60000,-1.26000,-0.12977
12.70000,-1.27000,-0.13191
12.80000,-1.27960,-0.13396
12.90000,-1.29013,-0.13591
13.00000,-1.29986,-0.13741
13.10000,-1.30986,-0.13914
13.20000,-1.32013,-0.14122
13.30000,-1.32973,-0.14217
13.40000,-1.33973,-0.14268
13.50000,-1.35000,-0.14442
13.60000,-1.35973,-0.14443
13.70000,-1.36973,-0.14609
13.80000,-1.37986,-0.14753
13.90000,-1.38986,-0.14810
14.00000,-1.39986,-0.15019
14.10000,-1.41000,-0.15288
14.20000,-1.42000,-0.15288
14.30000,-1.42986,-0.15585
14.40000,-1.44000,-0.15716
14.50000,-1.44986,-0.15952
14.60000,-1.45960,-0.16033
14.70000,-1.47000,-0.16367
14.80000,-1.47986,-0.16730
14.90000,-1.48986,-0.17037
15.00000,-1.50000,-0.17348
15.10000,-1.50960,-0.17414
15.20000,-1.52000,-0.17916
15.30000,-1.53000,-0.18212
15.40000,-1.53986,-0.18679
15.50000,-1.55000,-0.18952
15.60000,-1.55986,-0.19316
15.70000,-1.57000,-0.19587
15.80000,-1.57986,-0.19785
15.90000,-1.59000,-0.19933
16.00000,-1.59986,-0.20334
16.10000,-1.60973,-0.20756
16.20000,-1.62013,-0.21106
16.30000,-1.62973,-0.21504
16.40000,-1.63973,-0.21842
16.50000,-1.64986,-0.22253
16.60000,-1.65973,-0.22483
16.70000,-1.67013,-0.22934
16.80000,-1.68000,-0.23295
16.90000,-1.68973,-0.23676
17.00000,-1.70000,-0.24325
17.10000,-1.70986,-0.24892
17.20000,-1.71986,-0.25293
17.30000,-1.72986,-0.25846
17.40000,-1.73973,-0.26363
17.50000,-1.74986,-0.26895
17.60000,-1.75986,-0.27187
17.70000,-1.76986,-0.27758
17.80000,-1.77973,-0.28221
17.90000,-1.78973,-0.28654
18.00000,-1.80013,-0.29117
18.10000,-1.80973,-0.29528
18.20000,-1.82000,-0.30220
18.30000,-1.83000,-0.30568
18.40000,-1.83960,-0.31083
18.50000,-1.85013,-0.31930
18.60000,-1.85973,-0.32495
18.70000,-1.86960,-0.33006
18.80000,-1.87986,-0.33837
18.90000,-1.88973,-0.34601
19.00000,-1.89973,-0.35405
19.10000,-1.90986,-0.36176
19.20000,-1.91986,-0.36766
19.30000,-1.92986,-0.37515
19.40000,-1.94000,-0.38397
19.50000,-1.95013,-0.39171
19.60000,-1.96000,-0.39975
19.70000,-1.97026,-0.40561
19.80000,-1.98000,-0.41174
19.90000,-1.98986,-0.42170
20.00000,-2.00013,-0.42992
20.10000,-2.00986,-0.43605
20.20000,-2.01960,-0.43719
20.30000,-2.03000,-0.44365
20.40000,-2.03973,-0.44939
20.50000,-2.04973,-0.45667
20.60000,-2.06013,-0.46234
20.70000,-2.06973,-0.47036
20.80000,-2.07999,-0.47633
20.90000,-2.09013,-0.48015
21.00000,-2.09999,-0.48973
21.10000,-2.10986,-0.49997
21.20000,-2.11986,-0.50936
21.30000,-2.12999,-0.51719
21.40000,-2.13986,-0.52453
21.50000,-2.14999,-0.53393
21.60000,-2.15986,-0.54309
21.70000,-2.16946,-0.55215
21.80000,-2.18013,-0.56456
21.90000,-2.18973,-0.57585
22.00000,-2.19999,-0.58157
22.10000,-2.21013,-0.59335
22.20000,-2.21973,-0.60397
22.30000,-2.22999,-0.61188
22.40000,-2.23999,-0.62440
22.50000,-2.24986,-0.63471
22.60000,-2.25986,-0.64584
22.70000,-2.26986,-0.65855
22.80000,-2.27973,-0.67410
22.90000,-2.28986,-0.68659
23.00000,-2.29986,-0.69581
23.10000,-2.30986,-0.71361
23.20000,-2.31973,-0.72572
23.30000,-2.33013,-0.73637
23.40000,-2.33999,-0.74563
23.50000,-2.34986,-0.75546
23.60000,-2.36013,-0.76832
23.70000,-2.36973,-0.77761
23.80000,-2.37986,-0.79160
23.90000,-2.38999,-0.80608
24.00000,-2.39959,-0.81363
24.10000,-2.40999,-0.82257
24.20000,-2.41999,-0.82326
24.30000,-2.42986,-0.83606
24.40000,-2.43986,-0.85158
24.50000,-2.44986,-0.86322
24.60000,-2.45999,-0.87910
24.70000,-2.46999,-0.90489
24.80000,-2.48013,-0.92413
24.90000,-2.48986,-0.93917
25.00000,-2.49986,-0.95415
25.10000,-2.51013,-0.96648
25.20000,-2.51986,-0.97596
25.30000,-2.52986,-0.99729
25.40000,-2.53986,-1.01867
25.50000,-2.54959,-1.03592
25.60000,-2.55999,-1.05294
25.70000,-2.56986,-1.07360
25.80000,-2.57973,-1.08403
25.90000,-2.59013,-1.10241
26.00000,-2.59999,-1.12334
26.10000,-2.60999,-1.14498
26.20000,-2.62013,-1.16490
26.30000,-2.62999,-1.18814
26.40000,-2.63999,-1.20243
26.50000,-2.64999,-1.22769
26.60000,-2.65999,-1.25009
26.70000,-2.66973,-1.26299
26.80000,-2.67986,-1.28549
26.90000,-2.68986,-1.30007
27.00000,-2.69959,-1.32298
27.10000,-2.70999,-1.34098
27.20000,-2.71999,-1.35798
27.30000,-2.72973,-1.37634
27.40000,-2.74013,-1.39917
27.50000,-2.74999,-1.41075
27.60000,-2.75986,-1.43483
27.70000,-2.76999,-1.45755
27.80000,-2.77973,-1.48569
27.90000,-2.78986,-1.52040
28.00000,-2.79986,-1.53809
28.10000,-2.80986,-1.55976
28.20000,-2.81973,-1.58792
28.30000,-2.82959,-1.61845
28.40000,-2.83986,-1.63691
28.50000,-2.84973,-1.66675
28.60000,-2.85999,-1.66558
28.70000,-2.87013,-1.67363
28.80000,-2.87973,-1.69291
28.90000,-2.89013,-1.71458
29.00000,-2.89986,-1.73092
29.10000,-2.90986,-1.75444
29.20000,-2.92026,-1.76727
29.30000,-2.92973,-1.79319
29.40000,-2.93973,-1.81761
29.50000,-2.95013,-1.83925
29.60000,-2.95959,-1.85972
29.70000,-2.96986,-1.88775
29.80000,-2.97999,-1.91048
29.90000,-2.98999,-1.93682
30.00000,-2.99999,-1.96407
30.10000,-3.00999,-1.98622
30.20000,-3.01999,-2.01433
30.30000,-3.02986,-2.04049
30.40000,-3.04013,-2.06948
30.50000,-3.04999,-2.09490
30.60000,-3.05973,-2.11452
30.70000,-3.06999,-2.15138
30.80000,-3.07973,-2.17887
30.90000,-3.08973,-2.20752
31.00000,-3.09986,-2.24080
31.10000,-3.10959,-2.26589
31.20000,-3.11999,-2.28611
31.30000,-3.13013,-2.31629
31.40000,-3.13986,-2.34081
31.50000,-3.14999,-2.37328
31.60000,-3.15986,-2.39845
31.70000,-3.16999,-2.43086
31.80000,-3.17999,-2.46307
31.90000,-3.18999,-2.48678
32.00000,-3.19973,-2.50677
32.10000,-3.20959,-2.53108
32.20000,-3.22013,-2.55891
32.30000,-3.22986,-2.57748
32.40000,-3.23986,-2.59240
32.50000,-3.24999,-2.61608
32.60000,-3.25973,-2.63737
32.70000,-3.26999,-2.66365
32.80000,-3.27999,-2.69015
32.90000,-3.28973,-2.71719
33.00000,-3.29999,-2.74353
33.10000,-3.30999,-2.76229
33.20000,-3.31986,-2.78625
33.30000,-3.32999,-2.80729
33.40000,-3.33973,-2.83459
33.50000,-3.34986,-2.86891
33.60000,-3.35973,-2.90063
33.70000,-3.36973,-2.93624
33.80000,-3.37973,-2.97213
33.90000,-3.38959,-2.99589
34.00000,-3.40026,-3.02807
34.10000,-3.40986,-3.05777
34.20000,-3.41999,-3.09440
34.30000,-3.42999,-3.13034
34.40000,-3.43959,-3.16354
34.50000,-3.44986,-3.20297
34.60000,-3.45986,-3.23943
34.70000,-3.46972,-3.26528
34.80000,-3.47986,-3.29456
34.90000,-3.48972,-3.32604
35.00000,-3.49972,-3.36084
35.10000,-3.50986,-3.39252
35.20000,-3.51999,-3.43075
35.30000,-3.52986,-3.46973
35.40000,-3.53986,-3.50770
35.50000,-3.55012,-3.54461
35.60000,-3.55999,-3.57385
35.70000,-3.57012,-3.61233
35.80000,-3.57999,-3.66065
35.90000,-3.58972,-3.69837
36.00000,-3.59999,-3.74344
36.10000,-3.60986,-3.78710
36.20000,-3.61972,-3.83455
36.30000,-3.62999,-3.88587
36.40000,-3.63972,-3.92996
36.50000,-3.64972,-3.98211
36.60000,-3.66012,-4.02750
36.70000,-3.66986,-4.07466
36.80000,-3.67999,-4.12729
36.90000,-3.68999,-4.16167
37.00000,-3.69999,-4.20549
37.10000,-3.70999,-4.24414
37.20000,-3.71999,-4.29736
37.30000,-3.72999,-4.34991
37.40000,-3.73972,-4.39157
37.50000,-3.75012,-4.42715
37.60000,-3.75972,-4.45967
37.70000,-3.76946,-4.49537
37.80000,-3.78026,-4.53213
37.90000,-3.78972,-4.54287
38.00000,-3.79999,-4.57460
38.10000,-3.80999,-4.60979
38.20000,-3.81972,-4.63973
38.30000,-3.82999,-4.67626
38.40000,-3.83999,-4.70598
38.50000,-3.84986,-4.73121
38.60000,-3.85972,-4.76232
38.70000,-3.86972,-4.78981
38.80000,-3.87986,-4.82393
38.90000,-3.88986,-4.86087
39.00000,-3.89986,-4.89740
39.10000,-3.90986,-4.94539
39.20000,-3.91972,-4.99129
39.30000,-3.92999,-5.04041
39.40000,-3.93986,-5.08627
39.50000,-3.94986,-5.12497
39.60000,-3.96012,-5.16540
39.70000,-3.96986,-5.19818
39.80000,-3.97986,-5.23869
39.90000,-3.98999,-5.28219
40.00000,-3.99959,-5.31589
40.10000,-4.00999,-5.35421
40.20000,-4.01999,-5.39023
40.30000,-4.02972,-5.41312
40.40000,-4.03986,-5.44255
40.50000,-4.04972,-5.47518
40.60000,-4.05999,-5.50413
40.70000,-4.06999,-5.52916
40.80000,-4.08012,-5.55069
40.90000,-4.08999,-5.57136
41.00000,-4.09986,-5.59549
41.10000,-4.11012,-5.61639
41.20000,-4.11986,-5.63686
41.30000,-4.12999,-5.65828
41.40000,-4.13999,-5.68929
41.50000,-4.14959,-5.71148
41.60000,-4.15999,-5.73230
41.70000,-4.16986,-5.74874
41.80000,-4.17972,-5.77151
41.90000,-4.19012,-5.79926
42.00000,-4.19986,-5.81989
42.10000,-4.20986,-5.84151
42.20000,-4.22012,-5.86185
42.30000,-4.22986,-5.87682
42.40000,-4.23972,-5.89445
42.50000,-4.24999,-5.90886
42.60000,-4.25999,-5.93092
42.70000,-4.26986,-5.93461
42.80000,-4.27999,-5.95212
42.90000,-4.28999,-5.97690
43.00000,-4.29959,-5.97544
43.10000,-4.31012,-5.99947
43.20000,-4.31999,-6.03295
43.30000,-4.32972,-6.07307
43.40000,-4.34026,-6.12205
43.50000,-4.34999,-6.14917
43.60000,-4.35986,-6.17491
43.70000,-4.36999,-6.20262
43.80000,-4.37972,-6.22678
43.90000,-4.38999,-6.25643
44.00000,-4.39986,-6.27053
44.10000,-4.40986,-6.28965
44.20000,-4.41972,-6.31114
44.30000,-4.42959,-6.32773
44.40000,-4.43986,-6.35183
44.50000,-4.44972,-6.37424
44.60000,-4.45986,-6.39260
44.70000,-4.46999,-6.39880
44.80000,-4.47959,-6.40230
44.90000,-4.48999,-6.42625
45.00000,-4.49999,-6.43746
45.10000,-4.50986,-6.44821
45.20000,-4.51999,-6.47363
45.30000,-4.52972,-6.48737
45.40000,-4.53972,-6.50853
45.50000,-4.54999,-6.52211
45.60000,-4.55986,-6.51762
45.70000,-4.56986,-6.52875
45.80000,-4.57999,-6.53700
45.90000,-4.58999,-6.55044
46.00000,-4.59999,-6.56287
46.10000,-4.60999,-6.57034
46.20000,-4.61999,-6.58479
46.30000,-4.62999,-6.57571
46.40000,-4.64012,-6.58149
46.50000,-4.64999,-6.59218
46.60000,-4.65959,-6.59315
46.70000,-4.66999,-6.60766
46.80000,-4.67972,-6.61355
46.90000,-4.68972,-6.61469
47.00000,-4.69986,-6.63675
47.10000,-4.70959,-6.64368
47.20000,-4.71999,-6.66450
47.30000,-4.73012,-6.68114
47.40000,-4.73999,-6.69170
47.50000,-4.74999,-6.70684
47.60000,-4.75986,-6.72335
47.70000,-4.76999,-6.74528
47.80000,-4.77986,-6.76402
47.90000,-4.79012,-6.77756
48.00000,-4.79985,-6.79066
48.10000,-4.80972,-6.79695
48.20000,-4.82012,-6.81547
48.30000,-4.82972,-6.82002
48.40000,-4.83985,-6.82088
48.50000,-4.84999,-6.82165
48.60000,-4.85972,-6.81653
48.70000,-4.86999,-6.82606
48.80000,-4.87999,-6.83292
48.90000,-4.88985,-6.83350
49.00000,-4.90012,-6.84877
49.10000,-4.90999,-6.85132
49.20000,-4.91999,-6.85463
49.30000,-4.92999,-6.86060
49.40000,-4.93985,-6.86960
49.50000,-4.94985,-6.88057
49.60000,-4.95972,-6.88792
49.70000,-4.96985,-6.89357
49.80000,-4.97972,-6.90777
49.90000,-4.98972,-6.91805
50.00000,-4.99999,-6.93958
50.10000,-5.00972,-6.94284
50.20000,-5.01999,-6.95351
50.30000,-5.02999,-6.97052
50.40000,-5.03959,-6.97601
50.50000,-5.05012,-6.98195
50.60000,-5.05985,-6.97168
50.70000,-5.06972,-6.94995
50.80000,-5.07985,-6.95591
50.90000,-5.08959,-6.96610
51.00000,-5.09972,-6.97431
51.10000,-5.10999,-6.99560
51.20000,-5.11985,-7.01406
51.30000,-5.12999,-7.02064
51.40000,-5.13999,-7.04006
51.50000,-5.15012,-7.05778
51.60000,-5.15999,-7.07344
51.70000,-5.17012,-7.09008
51.80000,-5.17999,-7.10461
51.90000,-5.18972,-7.12037
52.00000,-5.19999,-7.13945
52.10000,-5.20985,-7.15309
52.20000,-5.21972,-7.16257
52.30000,-5.23012,-7.18113
52.40000,-5.23972,-7.18869
52.50000,-5.24985,-7.18671
52.60000,-5.26012,-7.19200
52.70000,-5.26972,-7.19690
52.80000,-5.27999,-7.20612
52.90000,-5.28999,-7.21566
53.00000,-5.29985,-7.22136
53.10000,-5.30999,-7.22726
53.20000,-5.31999,-7.23484
53.30000,-5.33012,-7.23826
53.40000,-5.33985,-7.23158
53.50000,-5.34999,-7.23949
53.60000,-5.35972,-7.24215
53.70000,-5.36945,-7.24123
53.80000,-5.37999,-7.25506
53.90000,-5.38972,-7.25912
54.00000,-5.39999,-7.26400
54.10000,-5.41012,-7.28284
54.20000,-5.41972,-7.29181
54.30000,-5.42985,-7.30649
54.40000,-5.43999,-7.31645
54.50000,-5.44985,-7.33425
54.60000,-5.45985,-7.35874
54.70000,-5.46972,-7.37492
54.80000,-5.47985,-7.39576
54.90000,-5.48985,-7.40931
55.00000,-5.49972,-7.41249
55.10000,-5.50972,-7.41675
55.20000,-5.51959,-7.41989
55.30000,-5.52999,-7.43380
55.40000,-5.53985,-7.44413
55.50000,-5.54972,-7.44391
55.60000,-5.56012,-7.46028
55.70000,-5.56972,-7.46506
55.80000,-5.57999,-7.47567
55.90000,-5.58999,-7.48317
56.00000,-5.59972,-7.48862
56.10000,-5.60999,-7.49911
56.20000,-5.61985,-7.49700
56.30000,-5.62972,-7.51141
56.40000,-5.63985,-7.52503
56.50000,-5.64985,-7.53970
56.60000,-5.65999,-7.55332
56.70000,-5.66999,-7.56197
56.80000,-5.68012,-7.57836
56.90000,-5.68985,-7.58411
57.00000,-5.69985,-7.59380
57.10000,-5.71012,-7.60816
57.20000,-5.71985,-7.61786
57.30000,-5.72985,-7.62652
57.40000,-5.73985,-7.64337
57.50000,-5.74972,-7.64893
57.60000,-5.75985,-7.65559
57.70000,-5.76985,-7.66277
57.80000,-5.77972,-7.66636
57.90000,-5.78999,-7.67734
58.00000,-5.79985,-7.68198
58.10000,-5.80999,-7.68475
58.20000,-5.82025,-7.68972
58.30000,-5.82999,-7.68525
58.40000,-5.83985,-7.69221
58.50000,-5.84985,-7.68444
58.60000,-5.85985,-7.68638
58.70000,-5.86972,-7.68927
58.80000,-5.87985,-7.69585
58.90000,-5.88985,-7.71320
59.00000,-5.89972,-7.72699
59.10000,-5.91012,-7.73797
59.20000,-5.91999,-7.74234
59.30000,-5.92972,-7.74231
59.40000,-5.94025,-7.75846
59.50000,-5.94999,-7.76449
59.60000,-5.95999,-7.76956
59.70000,-5.97012,-7.77708
59.80000,-5.97972,-7.77639
59.90000,-5.98985,-7.78012
60.00000,-5.99999,-7.78439
60.10000,-6.00985,-7.78745
60.20000,-6.01972,-7.79988
60.30000,-6.02972,-7.80747
60.40000,-6.03985,-7.81271
60.50000,-6.04959,-7.81714
60.60000,-6.05999,-7.82591
60.70000,-6.06999,-7.83734
60.80000,-6.07972,-7.83796
60.90000,-6.09012,-7.85092
61.00000,-6.09985,-7.85277
61.10000,-6.10972,-7.85873
61.20000,-6.11999,-7.87629
61.30000,-6.12972,-7.87947
61.40000,-6.13972,-7.88209
61.50000,-6.15012,-7.89588
61.60000,-6.15972,-7.90197
61.70000,-6.16972,-7.91014
61.80000,-6.17999,-7.92542
61.90000,-6.18985,-7.93311
62.00000,-6.19985,-7.93860
62.10000,-6.20998,-7.94093
62.20000,-6.21998,-7.95189
62.30000,-6.22999,-7.94970
62.40000,-6.24012,-7.95661
62.50000,-6.24985,-7.96355
62.60000,-6.25972,-7.96693
62.70000,-6.26998,-7.98290
62.80000,-6.27972,-7.99222
62.90000,-6.28972,-7.99627
63.00000,-6.29985,-8.00799
63.10000,-6.30958,-8.00869
63.20000,-6.32012,-8.02168
63.30000,-6.33012,-8.02934
63.40000,-6.33985,-8.03518
63.50000,-6.34998,-8.04794
63.60000,-6.35985,-8.05351
63.70000,-6.36998,-8.06529
63.80000,-6.37998,-8.06479
63.90000,-6.39012,-8.07436
64.00000,-6.39985,-8.07853
64.10001,-6.40972,-8.07730
64.20000,-6.41998,-8.08997
64.30000,-6.42972,-8.09314
64.40000,-6.43985,-8.09792
64.50000,-6.44998,-8.11626
64.60001,-6.45972,-8.11317
64.70000,-6.47012,-8.11899
64.80000,-6.47998,-8.12538
64.90000,-6.48972,-8.12955
65.00000,-6.49998,-8.13721
65.10001,-6.50972,-8.14286
65.20000,-6.51985,-8.15679
65.30000,-6.52998,-8.16470
65.40000,-6.53972,-8.17460
65.50000,-6.54985,-8.18525
65.60001,-6.55985,-8.19342
65.70001,-6.56972,-8.20183
65.80000,-6.57972,-8.20991
65.90000,-6.58985,-8.21691
66.00000,-6.60012,-8.22395
66.10001,-6.60972,-8.22961
66.20001,-6.61998,-8.23742
66.30000,-6.62998,-8.24939
66.40000,-6.63958,-8.24272
66.50000,-6.65012,-8.24985
66.60001,-6.65985,-8.24817
66.70001,-6.66972,-8.24927
66.80000,-6.67998,-8.25712
66.90000,-6.68972,-8.26023
67.00000,-6.69972,-8.26252
67.10001,-6.70998,-8.26995
67.20001,-6.71985,-8.27006
67.30000,-6.72998,-8.28018
67.40000,-6.73998,-8.28794
67.50000,-6.75012,-8.29639
67.60001,-6.75998,-8.30405
67.70001,-6.77012,-8.31435
67.80000,-6.77998,-8.32949
67.90000,-6.78972,-8.33249
68.00000,-6.79998,-8.34921
68.10001,-6.80998,-8.35169
68.20001,-6.81972,-8.36298
68.30000,-6.82998,-8.38269
68.40000,-6.83972,-8.39191
68.50000,-6.84985,-8.40685
68.60001,-6.86012,-8.41923
68.70001,-6.86972,-8.42500
68.80000,-6.87998,-8.44263
68.90000,-6.89012,-8.45232
69.00000,-6.90012,-8.46903
69.10001,-6.91012,-8.48310
69.20001,-6.91998,-8.49530
69.30000,-6.92998,-8.50222
69.40000,-6.93972,-8.50924
69.50000,-6.94998,-8.52007
69.60001,-6.95972,-8.52648
69.70001,-6.96945,-8.53064
69.80000,-6.98012,-8.54343
69.90000,-6.98985,-8.54575
70.00000,-6.99998,-8.54963
70.10001,-7.00998,-8.55765
70.20001,-7.01972,-8.55937
70.30000,-7.02998,-8.56860
70.40000,-7.03998,-8.57290
70.50000,-7.04985,-8.57016
70.60001,-7.05972,-8.57611
70.70001,-7.06972,-8.57677
70.80000,-7.07985,-8.58114
70.90000,-7.08972,-8.57619
71.00000,-7.09972,-8.56685
71.10001,-7.10972,-8.56267
71.20001,-7.11972,-8.54752
71.30000,-7.13012,-8.52459
71.40000,-7.13985,-8.48233
71.50000,-7.14985,-8.43067
71.60001,-7.16012,-8.40334
71.70001,-7.16972,-8.34569
71.80000,-7.17985,-8.29371
71.90000,-7.19012,-8.18801
72.00000,-7.19958,-8.14970
72.10001,-7.20998,-8.15080
72.20001,-7.21998,-8.16139
72.30000,-7.22985,-8.16305
72.40000,-7.23998,-8.17693
72.50000,-7.24985,-8.18951
72.60001,-7.25998,-8.20525
72.70001,-7.26998,-8.21405
72.80000,-7.27998,-8.22306
72.90000,-7.28985,-8.22944
73.00000,-7.29985,-8.24129
73.10001,-7.31025,-8.24550
73.20001,-7.31985,-8.24498
73.30000,-7.32998,-8.25526
73.40000,-7.33985,-8.26980
73.50000,-7.34972,-8.28198
73.60001,-7.35998,-8.29099
73.70001,-7.36985,-8.29680
73.80000,-7.37972,-8.29812
73.90000,-7.38998,-8.31399
74.00000,-7.39985,-8.31286
74.10001,-7.40985,-8.31477
74.20001,-7.42012,-8.32069
74.30000,-7.42998,-8.31943
74.40000,-7.43998,-8.32563
74.50000,-7.44998,-8.30747
74.60001,-7.45998,-8.30707
74.70001,-7.46985,-8.30763
74.80000,-7.47985,-8.31396
74.90000,-7.48985,-8.32457
75.00000,-7.49958,-8.33171
75.10001,-7.50998,-8.35473
75.20001,-7.51998,-8.37043
75.30000,-7.52972,-8.37708
75.40000,-7.54011,-8.39641
75.50000,-7.54998,-8.40633
75.60001,-7.55998,-8.41453
75.70001,-7.57025,-8.43035
75.80000,-7.57971,-8.43273
75.90000,-7.58985,-8.44819
76.00000,-7.59985,-8.46032
76.10001,-7.60971,-8.47023
76.20001,-7.61971,-8.48277
76.30000,-7.62971,-8.49228
76.40000,-7.63985,-8.51201
76.50000,-7.64971,-8.51927
76.60001,-7.65998,-8.52101
76.70001,-7.66985,-8.53470
76.80000,-7.67971,-8.54097
76.90000,-7.69011,-8.55836
77.00000,-7.69985,-8.56773
77.10001,-7.70985,-8.57375
77.20001,-7.72011,-8.58813
77.30000,-7.72971,-8.59271
77.40000,-7.73985,-8.60289
77.50000,-7.75011,-8.61552
77.60001,-7.75958,-8.62109
77.70001,-7.76971,-8.64416
77.80000,-7.77998,-8.66614
77.90000,-7.78985,-8.68220
78.00000,-7.79998,-8.69684
78.10001,-7.80998,-8.71178
78.20001,-7.81998,-8.72431
78.30000,-7.82998,-8.73478
78.40000,-7.84011,-8.74737
78.50000,-7.84998,-8.75650
78.60001,-7.85971,-8.76571
78.70001,-7.87011,-8.78719
78.80000,-7.87971,-8.79471
78.90000,-7.88971,-8.80199
79.00000,-7.89998,-8.81271
79.10001,-7.90971,-8.81701
79.20001,-7.92011,-8.82902
79.30000,-7.92998,-8.83151
79.40000,-7.93985,-8.83281
79.50000,-7.94998,-8.85080
79.60001,-7.95985,-8.86443
79.70001,-7.96998,-8.88608
79.80000,-7.97998,-8.90533
79.90000,-7.99011,-8.91998
80.00000,-7.99985,-8.93772
80.10001,-8.00971,-8.95189
80.20001,-8.01998,-8.97681
80.30000,-8.02971,-8.98957
80.40000,-8.03985,-9.00657
80.50001,-8.04998,-9.02825
80.60001,-8.05971,-9.03526
80.70001,-8.06998,-9.05478
80.80000,-8.07998,-9.06872
80.90000,-8.08971,-9.07564
81.00001,-8.09998,-9.09844
81.10001,-8.10998,-9.10904
81.20001,-8.11985,-9.11973
81.30000,-8.12998,-9.12813
81.40000,-8.13971,-9.13632
81.50001,-8.14985,-9.15304
81.60001,-8.15985,-9.16558
81.70001,-8.16971,-9.17524
81.80000,-8.17971,-9.18382
81.90000,-8.18971,-9.19400
82.00001,-8.20011,-9.21111
82.10001,-8.20985,-9.21921
82.20001,-8.21998,-9.23351
82.30000,-8.22998,-9.24596
82.40000,-8.23958,-9.24665
82.50001,-8.25011,-9.26278
82.60001,-8.25985,-9.26976
82.70001,-8.26971,-9.27305
82.80000,-8.27985,-9.28508
82.90000,-8.28971,-9.29027
83.00001,-8.29971,-9.29449
83.10001,-8.30998,-9.29820
83.20001,-8.31998,-9.29470
83.30000,-8.32985,-9.29673
83.40000,-8.33998,-9.29285
83.50001,-8.35011,-9.28799
83.60001,-8.35998,-9.27812
83.70001,-8.36998,-9.26457
83.80000,-8.37998,-9.26073
83.90000,-8.38971,-9.24243
84.00001,-8.39998,-9.23221
84.10001,-8.40985,-9.22492
84.20001,-8.41958,-9.21441
84.30000,-8.42998,-9.22293
84.40000,-8.43971,-9.21032
84.50001,-8.44971,-9.21250
84.60001,-8.46011,-9.21807
84.70001,-8.46985,-9.21344
84.80000,-8.47998,-9.21779
84.90000,-8.48998,-9.21831
85.00001,-8.49998,-9.21870
85.10001,-8.50985,-9.21959
85.20001,-8.51998,-9.21098
85.30000,-8.52998,-9.21042
85.40000,-8.53971,-9.20439
85.50001,-8.55011,-9.20860
85.60001,-8.55985,-9.21164
85.70001,-8.56958,-9.20498
85.80000,-8.58011,-9.21442
85.90000,-8.58985,-9.20052
86.00001,-8.59998,-9.20025
86.10001,-8.61011,-9.20734
86.20001,-8.61971,-9.19804
86.30000,-8.62998,-9.20511
86.40000,-8.63998,-9.20637
86.50001,-8.64985,-9.20481
86.60001,-8.65985,-9.21099
86.70001,-8.66985,-9.20768
86.80000,-8.67985,-9.20981
86.90000,-8.68971,-9.20647
87.00001,-8.69971,-9.20065
87.10001,-8.70985,-9.20897
87.20001,-8.71971,-9.21058
87.30000,-8.73011,-9.21422
87.40000,-8.73985,-9.20846
87.50001,-8.74985,-9.20423
87.60001,-8.76011,-9.21125
87.70001,-8.76985,-9.20739
87.80000,-8.77998,-9.20362
87.90000,-8.78998,-9.19638
88.00001,-8.79958,-9.18255
88.10001,-8.80984,-9.17488
88.20001,-8.81998,-9.16717
88.30000,-8.82985,-9.14749
88.40000,-8.83971,-9.13027
88.50001,-8.84971,-9.11761
88.60001,-8.85984,-9.10533
88.70001,-8.86985,-9.08773
88.80000,-8.87998,-9.07893
88.90000,-8.88971,-9.07107
89.00001,-8.89971,-9.05728
89.10001,-8.91011,-9.05260
89.20001,-8.91985,-9.04301
89.30000,-8.92984,-9.03456
89.40000,-8.93998,-9.03964
89.50001,-8.94958,-9.03778
89.60001,-8.95998,-9.03829
89.70001,-8.96985,-9.04053
89.80000,-8.97971,-9.03575
89.90000,-8.99011,-9.04435
90.00001,-8.99985,-9.04408
90.10001,-9.00984,-9.04644
90.20001,-9.02011,-9.05091
90.30000,-9.02998,-9.05170
90.40000,-9.03998,-9.05681
90.50001,-9.04998,-9.06019
90.60001,-9.05998,-9.06646
90.70001,-9.06971,-9.06733
90.80000,-9.07984,-9.06604
90.90000,-9.08998,-9.07979
91.00001,-9.09958,-9.07869
91.10001,-9.10998,-9.08555
91.20001,-9.11984,-9.09309
91.30000,-9.12958,-9.09295
91.40000,-9.14011,-9.11072
91.50001,-9.14998,-9.11469
91.60001,-9.15984,-9.11965
91.70001,-9.16998,-9.13253
91.80000,-9.17971,-9.14073
91.90000,-9.18984,-9.15232
92.00001,-9.19998,-9.16069
92.10001,-9.20998,-9.17070
92.20001,-9.21984,-9.17844
92.30000,-9.22958,-9.18092
92.40000,-9.23998,-9.18941
92.50001,-9.24984,-9.19147
92.60001,-9.25998,-9.19521
92.70001,-9.26984,-9.20802
92.80000,-9.27958,-9.20561
92.90000,-9.28998,-9.21535
93.00001,-9.29998,-9.21897
93.10001,-9.30984,-9.21752
93.20001,-9.32011,-9.22970
93.30000,-9.32971,-9.23248
93.40000,-9.33971,-9.23971
93.50001,-9.34998,-9.25083
93.60001,-9.35971,-9.25136
93.70001,-9.36984,-9.26324
93.80000,-9.37998,-9.27281
93.90000,-9.38984,-9.28146
94.00001,-9.39998,-9.29265
94.10001,-9.40998,-9.30258
94.20001,-9.41998,-9.31646
94.30000,-9.42984,-9.32563
94.40000,-9.44011,-9.33394
94.50001,-9.44998,-9.34115
94.60001,-9.45971,-9.34511
94.70001,-9.47011,-9.35904
94.80000,-9.47984,-9.36334
94.90000,-9.48971,-9.36710
95.00001,-9.49984,-9.37776
95.10001,-9.50958,-9.38009
95.20001,-9.51998,-9.39588
95.30000,-9.53011,-9.40460
95.40000,-9.53984,-9.40775
95.50001,-9.54998,-9.41511
95.60001,-9.55984,-9.41938
95.70001,-9.56998,-9.42585
95.80000,-9.57998,-9.43348
95.90000,-9.59011,-9.43862
96.00001,-9.59971,-9.44649
96.10001,-9.60971,-9.45196
96.20001,-9.61998,-9.46761
96.30000,-9.62971,-9.47230
96.40000,-9.63971,-9.47689
96.50001,-9.64998,-9.49260
96.60001,-9.65971,-9.49593
96.70001,-9.66998,-9.50726
96.80000,-9.68011,-9.51685
96.90000,-9.68971,-9.51535
97.00001,-9.70011,-9.52657
97.10001,-9.70998,-9.52595
97.20001,-9.71998,-9.52812
97.30000,-9.72998,-9.52666
97.40000,-9.73971,-9.52119
97.50001,-9.74984,-9.52528
97.60001,-9.75971,-9.52435
97.70001,-9.76984,-9.52874
97.80000,-9.77971,-9.53641
97.90000,-9.78958,-9.53926
98.00001,-9.80011,-9.55384
98.10001,-9.80984,-9.52686
98.20001,-9.81998,-9.53397
98.30000,-9.82998,-9.54567
98.40000,-9.83958,-9.54717
98.50001,-9.85011,-9.56124
98.60001,-9.85998,-9.56482
98.70001,-9.86971,-9.56026
98.80000,-9.87998,-9.57142
98.90000,-9.88971,-9.57024
99.00001,-9.89971,-9.57571
99.10001,-9.90998,-9.58393
99.20001,-9.91984,-9.59133
99.30000,-9.92984,-9.60625
99.40000,-9.93998,-9.61419
99.50001,-9.94998,-9.62638
99.60001,-9.95998,-9.62852
99.70001,-9.96998,-9.63138
99.80000,-9.97984,-9.63121
99.90000,-9.98971,-9.63245
100.00001,-9.99998,-9.64099
100.10001,-10.00984,-9.64751
100.20001,-10.01971,-9.65233
100.30000,-10.02998,-9.66666
100.40000,-10.03971,-9.67720
100.50001,-10.04984,-9.68840
100.60001,-10.06011,-9.70425
100.70001,-10.06971,-9.71224
100.80000,-10.07984,-9.72740
100.90000,-10.09011,-9.74405
101.00001,-10.09998,-9.75953
101.10001,-10.10998,-9.77151
101.20001,-10.11998,-9.78392
101.30000,-10.12998,-9.79993
101.40000,-10.13971,-9.80849
101.50001,-10.15011,-9.82625
101.60001,-10.15984,-9.84226
101.70001,-10.16944,-9.84744
101.80000,-10.18011,-9.86323
101.90000,-10.18984,-9.87170
102.00001,-10.19998,-9.87827
102.10001,-10.21011,-9.89023
102.20001,-10.21971,-9.89831
102.30000,-10.22997,-9.90992
102.40000,-10.24011,-9.91988
102.50001,-10.24984,-9.92742
102.60001,-10.25984,-9.94092
102.70001,-10.26971,-9.94632
102.80000,-10.27984,-9.94897
102.90000,-10.28971,-9.94839
103.00001,-10.29971,-9.94428
103.10001,-10.30971,-9.95348
103.20001,-10.31957,-9.95199
103.30000,-10.32997,-9.96154
103.40000,-10.33997,-9.96974
103.50001,-10.34971,-9.96746
103.60001,-10.36011,-9.98277
103.70001,-10.36984,-9.98445
103.80000,-10.37984,-9.98290
103.90000,-10.39011,-9.98235
104.00001,-10.39971,-9.97670
104.10001,-10.40984,-9.97605
104.20001,-10.41984,-9.96448
104.30000,-10.42971,-9.92250
104.40000,-10.43971,-9.90762
104.50001,-10.44971,-9.89973
104.60001,-10.45997,-9.90200
104.70001,-10.46997,-9.90063
104.80000,-10.48011,-9.90002
104.90000,-10.48997,-9.89845
105.00001,-10.49984,-9.88548
105.10001,-10.51011,-9.87351
105.20001,-10.51997,-9.85462
105.30000,-10.52997,-9.84797
105.40000,-10.54011,-9.84673
105.50001,-10.54971,-9.84136
105.60001,-10.55997,-9.84113
105.70001,-10.56997,-9.84372
105.80000,-10.57984,-9.84486
105.90000,-10.58997,-9.85592
106.00001,-10.59984,-9.85977
106.10001,-10.60984,-9.86419
106.20001,-10.62011,-9.87248
106.30000,-10.62997,-9.87909
106.40000,-10.63997,-9.88978
106.50001,-10.64997,-9.90376
106.60001,-10.65997,-9.91885
106.70001,-10.66984,-9.92980
106.80000,-10.67984,-9.93901
106.90000,-10.68984,-9.96010
107.00001,-10.69971,-9.96661
107.10001,-10.70997,-9.98035
107.20001,-10.71984,-9.97416
107.30000,-10.72957,-9.97456
107.40000,-10.74011,-9.99319
107.50001,-10.74984,-10.00473
107.60001,-10.75997,-10.01697
107.70001,-10.77011,-10.03889
107.80000,-10.77984,-10.04943
107.90000,-10.78984,-10.05792
108.00001,-10.79984,-10.06419
108.10001,-10.80984,-10.07501
108.20001,-10.81971,-10.09780
108.30000,-10.82957,-10.11058
108.40000,-10.83984,-10.13083
108.50001,-10.84971,-10.14275
108.60001,-10.85997,-10.16003
108.70001,-10.86997,-10.18347
108.80000,-10.87971,-10.19432
108.90000,-10.89011,-10.21314
109.00001,-10.89997,-10.22891
109.10001,-10.90984,-10.22913
109.20001,-10.92011,-10.24495
109.30000,-10.92971,-10.24938
109.40000,-10.93984,-10.25529
109.50001,-10.95011,-10.26954
109.60001,-10.95971,-10.27077
109.70001,-10.96971,-10.28820
109.80000,-10.97984,-10.30223
109.90000,-10.98971,-10.30924
110.00001,-10.99984,-10.32402
110.10001,-11.01011,-10.34032
110.20001,-11.02011,-10.35550
110.30000,-11.02997,-10.36585
110.40000,-11.03997,-10.37412
110.50001,-11.04984,-10.35101
110.60001,-11.05971,-10.32362
110.70001,-11.07011,-10.32632
110.80000,-11.07971,-10.32561
110.90000,-11.08971,-10.31730
111.00001,-11.09984,-10.32235
111.10001,-11.10957,-10.32496
111.20001,-11.11997,-10.33706
111.30000,-11.12997,-10.34121
111.40000,-11.13997,-10.34489
111.50001,-11.14997,-10.35365
111.60001,-11.15984,-10.35730
111.70001,-11.16997,-10.37015
111.80000,-11.17997,-10.38056
111.90000,-11.19011,-10.39166
112.00001,-11.19971,-10.39663
112.10001,-11.20971,-10.39669
112.20001,-11.22011,-10.39659
112.30000,-11.22971,-10.39035
112.40000,-11.23971,-10.37902
112.50001,-11.24997,-10.37874
112.60001,-11.25971,-10.34869
112.70001,-11.27011,-10.32815
112.80000,-11.28011,-10.30847
112.90001,-11.28971,-10.27957
113.00001,-11.29997,-10.27167
113.10001,-11.30997,-10.24989
113.20001,-11.31984,-10.23704
113.30000,-11.32997,-10.23233
113.40001,-11.33971,-10.23275
113.50001,-11.34984,-10.24860
113.60001,-11.35971,-10.25474
113.70001,-11.36971,-10.26594
113.80000,-11.37971,-10.28307
113.90001,-11.38971,-10.29614
114.00001,-11.39997,-10.31808
114.10001,-11.40971,-10.33234
114.20001,-11.41997,-10.35325
114.30000,-11.43011,-10.37462
114.40001,-11.43957,-10.38926
114.50001,-11.45011,-10.41875
114.60001,-11.45984,-10.43911
114.70001,-11.46971,-10.45038
114.80000,-11.47997,-10.47746
114.90001,-11.48971,-10.49414
115.00001,-11.49971,-10.50782
115.10001,-11.50997,-10.52564
115.20001,-11.51984,-10.54214
115.30000,-11.52984,-10.56488
115.40001,-11.53997,-10.57317
115.50001,-11.55011,-10.56935
115.60001,-11.55997,-10.56873
115.70001,-11.57011,-10.57661
115.80000,-11.57997,-10.59785
115.90001,-11.58971,-10.61506
116.00001,-11.60011,-10.63741
116.10001,-11.60984,-10.65227
116.20001,-11.61970,-10.66453
116.30000,-11.63010,-10.69748
116.40001,-11.63984,-10.70789
116.50001,-11.64984,-10.73258
116.60001,-11.65997,-10.75121
116.70001,-11.66970,-10.74034
116.80000,-11.67997,-10.76018
116.90001,-11.69011,-10.77316
117.00001,-11.69997,-10.78496
117.10001,-11.70997,-10.78277
117.20001,-11.71984,-10.77980
117.30000,-11.72997,-10.79471
117.40001,-11.73970,-10.80508
117.50001,-11.74997,-10.81544
117.60001,-11.75984,-10.83099
117.70001,-11.76957,-10.83610
117.80000,-11.78010,-10.86086
117.90001,-11.78984,-10.86867
118.00001,-11.79997,-10.87564
118.10001,-11.80997,-10.87924
118.20001,-11.81957,-10.88233
118.30000,-11.82997,-10.89130
118.40001,-11.83997,-10.90013
118.50001,-11.84984,-10.91097
118.60001,-11.85997,-10.92416
118.70001,-11.86970,-10.93327
118.80000,-11.87984,-10.95405
118.90001,-11.88984,-10.97533
119.00001,-11.89970,-10.98630
119.10001,-11.90970,-11.01067
119.20001,-11.91957,-11.02070
119.30000,-11.92997,-11.04924
119.40001,-11.93997,-11.06595
119.50001,-11.94984,-11.06522
119.60001,-11.96010,-11.09076
119.70001,-11.96970,-11.10049
119.80000,-11.97997,-11.11207
119.90001,-11.99010,-11.13418
120.00001,-11.99970,-11.12699
120.10001,-12.00997,-11.14996
120.20001,-12.01997,-11.16539
120.30000,-12.02984,-11.17167
120.40001,-12.03984,-11.18945
120.50001,-12.04970,-11.19663
120.60001,-12.05984,-11.21713
120.70001,-12.06997,-11.23575
120.80000,-12.07997,-11.24937
120.90001,-12.08997,-11.26219
121.00001,-12.09984,-11.27951
121.10001,-12.11024,-11.29187
121.20001,-12.11997,-11.29788
121.30000,-12.12984,-11.30059
121.40001,-12.13997,-11.32470
121.50001,-12.14957,-11.32992
121.60001,-12.15997,-11.34751
121.70001,-12.16984,-11.36028
121.80000,-12.17970,-11.36884
121.90001,-12.18997,-11.39896
122.00001,-12.19984,-11.39978
122.10001,-12.20984,-11.41547
122.20001,-12.22010,-11.44447
122.30000,-12.22984,-11.44273
122.40001,-12.23997,-11.45691
122.50001,-12.24997,-11.45763
122.60001,-12.25997,-11.45212
122.70001,-12.26984,-11.45463
122.80000,-12.27997,-11.45348
122.90001,-12.28997,-11.45457
123.00001,-12.29970,-11.45264
123.10001,-12.31010,-11.46500
123.20001,-12.31984,-11.46214
123.30000,-12.32957,-11.46811
123.40001,-12.34024,-11.47227
123.50001,-12.34997,-11.48199
123.60001,-12.35997,-11.48989
123.70001,-12.37010,-11.49591
123.80000,-12.37970,-11.48934
123.90001,-12.38984,-11.47677
124.00001,-12.39984,-11.48315
124.10001,-12.40984,-11.48508
124.20001,-12.41970,-11.47244
124.30000,-12.42957,-11.47917
124.40001,-12.43970,-11.48428
124.50001,-12.44970,-11.49117
124.60001,-12.45984,-11.48147
124.70001,-12.46997,-11.48947
124.80000,-12.47957,-11.45846
124.90001,-12.49024,-11.45899
125.00001,-12.49997,-11.46337
125.10001,-12.50984,-11.43891
125.20001,-12.52010,-11.45586
125.30000,-12.52970,-11.45384
125.40001,-12.53970,-11.46313
125.50001,-12.55010,-11.47742
125.60001,-12.55970,-11.47355
125.70001,-12.56970,-11.46077
125.80000,-12.57997,-11.47962
125.90001,-12.58984,-11.47172
126.00001,-12.59997,-11.47908
126.10001,-12.60997,-11.46936
126.20001,-12.61997,-11.45063
126.30000,-12.62997,-11.45406
126.40001,-12.64010,-11.45591
126.50001,-12.64997,-11.45923
126.60001,-12.65957,-11.45786
126.70001,-12.67010,-11.46719
126.80000,-12.67984,-11.46661
126.90001,-12.68984,-11.46726
127.00001,-12.69997,-11.43874
127.10001,-12.70957,-11.43482
127.20001,-12.71997,-11.44993
127.30000,-12.72997,-11.45600
127.40001,-12.73984,-11.45678
127.50001,-12.74997,-11.46717
127.60001,-12.75984,-11.46565
127.70001,-12.76997,-11.46523
127.80000,-12.77997,-11.46273
127.90001,-12.78997,-11.45629
128.00000,-12.79984,-11.45684
128.10001,-12.80970,-11.45212
128.20002,-12.81997,-11.46434
128.30000,-12.82970,-11.44342
128.40001,-12.83984,-11.44428
128.50000,-12.84997,-11.46609
128.60001,-12.85970,-11.44340
128.70002,-12.87010,-11.46345
128.80000,-12.88010,-11.46492
128.90001,-12.88984,-11.46910
129.00000,-12.90010,-11.48224
129.10001,-12.90984,-11.48471
129.20002,-12.91983,-11.49324
129.30000,-12.92984,-11.49301
129.40001,-12.93970,-11.48981
129.50000,-12.94984,-11.49570
129.60001,-12.95984,-11.47492
129.70002,-12.96983,-11.47703
129.80000,-12.97970,-11.48035
129.90001,-12.98983,-11.48330
130.00000,-13.00010,-11.46990
130.10001,-13.00984,-11.48336
130.20002,-13.02010,-11.49783
130.30000,-13.02997,-11.50297
130.40001,-13.03957,-11.49166
130.50000,-13.05010,-11.50033
130.60001,-13.05983,-11.49758
130.70002,-13.06970,-11.49105
130.80000,-13.07997,-11.48392
130.90001,-13.08957,-11.47890
131.00000,-13.09970,-11.48097
131.10000,-13.10997,-11.48776
131.20002,-13.11997,-11.49005
131.30000,-13.12984,-11.49110
131.40002,-13.13997,-11.48525
131.50000,-13.14997,-11.49321
131.60000,-13.15997,-11.49420
131.70002,-13.17010,-11.49432
131.80000,-13.17997,-11.48799
131.90002,-13.18970,-11.49785
132.00000,-13.20010,-11.50593
132.10000,-13.20997,-11.51503
132.20002,-13.21970,-11.52265
132.30000,-13.22997,-11.54702
132.40002,-13.23970,-11.54281
132.50000,-13.24983,-11.56037
132.60000,-13.26010,-11.58418
132.70002,-13.26983,-11.59024
132.80000,-13.27983,-11.60280
132.90002,-13.28997,-11.61504
133.00000,-13.29983,-11.62836
133.10000,-13.30997,-11.62837
133.20002,-13.31983,-11.64793
133.30000,-13.32997,-11.60992
133.40002,-13.33983,-11.63004
133.50000,-13.35010,-11.65527
133.60000,-13.35997,-11.67827
133.70002,-13.36957,-11.68342
133.80000,-13.38010,-11.69899
133.90002,-13.38983,-11.71350
134.00000,-13.39997,-11.73095
134.10000,-13.41010,-11.75472
134.20002,-13.41970,-11.76658
134.30000,-13.42997,-11.79203
134.40002,-13.44010,-11.81372
134.50000,-13.44983,-11.82327
134.60000,-13.45983,-11.84459
134.70002,-13.46970,-11.85901
134.80000,-13.47970,-11.85878
134.90002,-13.48970,-11.86775
135.00000,-13.49970,-11.87769
135.10000,-13.50970,-11.89527
135.20002,-13.51970,-11.89996
135.30000,-13.52997,-11.91883
135.40002,-13.53983,-11.92489
135.50000,-13.54970,-11.89618
135.60000,-13.56010,-11.90834
135.70002,-13.56983,-11.91485
135.80000,-13.57997,-11.93217
135.90002,-13.58997,-11.94739
136.00000,-13.59957,-11.95185
136.10000,-13.60983,-11.97212
136.20002,-13.61997,-11.97987
136.30000,-13.62970,-11.98243
136.40002,-13.63970,-11.99263
136.50000,-13.64970,-12.00418
136.60000,-13.65997,-12.01872
136.70002,-13.66997,-12.02484
136.80000,-13.68010,-12.01821
136.90002,-13.68983,-12.01033
137.00000,-13.69983,-12.01483
137.10000,-13.71010,-12.02904
137.20002,-13.71983,-12.04322
137.30000,-13.72997,-12.05626
137.40002,-13.73997,-12.07837
137.50000,-13.74970,-11.70993
137.60000,-13.75997,-11.58442
137.70002,-13.76983,-11.59066
137.80000,-13.77970,-11.59477
137.90002,-13.79010,-11.62734
138.00000,-13.79983,-11.65498
138.10000,-13.80983,-11.68369
138.20002,-13.82010,-11.71348
138.30000,-13.82983,-11.72785
138.40002,-13.83983,-11.76183
138.50000,-13.85010,-11.78655
138.60000,-13.85997,-11.81774
138.70002,-13.86983,-11.83852
138.80000,-13.87997,-11.85333
138.90002,-13.88997,-11.88308
139.00000,-13.89970,-11.90351
139.10000,-13.91010,-11.92939
139.20002,-13.91997,-11.95878
139.30000,-13.92957,-11.97217
139.40002,-13.94023,-12.00883
139.50000,-13.94983,-12.02614
139.60000,-13.95983,-12.04797
139.70002,-13.97010,-12.07726
139.80000,-13.97983,-12.10090
139.90002,-13.99010,-12.13139
140.00000,-13.99997,-12.15479
140.10000,-14.00983,-12.17959
140.20002,-14.01970,-12.19855
140.30000,-14.02970,-12.22032
140.40002,-14.03970,-12.25305
140.50000,-14.04970,-12.27152
140.60000,-14.05983,-12.29918
140.70002,-14.06997,-12.34110
140.80000,-14.07957,-12.36267
140.90002,-14.09010,-12.39892
141.00000,-14.09983,-12.42818
141.10000,-14.10983,-12.45058
141.20002,-14.12023,-12.49227
141.30000,-14.12970,-12.50923
141.40002,-14.13983,-12.53211
141.50000,-14.14997,-12.55709
141.60000,-14.15957,-12.57519
141.70002,-14.16970,-12.61059
141.80000,-14.17983,-12.63928
141.90002,-14.18983,-12.66635
142.00000,-14.19997,-12.69124
142.10000,-14.20997,-12.71256
142.20002,-14.21996,-12.73880
142.30000,-14.22997,-12.75357
142.40002,-14.24023,-12.77512
142.50000,-14.24997,-12.79601
142.60000,-14.25970,-12.81072
142.70002,-14.27010,-12.83710
142.80000,-14.27983,-12.85396
142.90002,-14.28983,-12.86818
143.00000,-14.29997,-12.88648
143.10000,-14.30956,-12.88996
143.20002,-14.31996,-12.89443
143.30000,-14.33010,-12.91428
143.40002,-14.33983,-12.92647
143.50000,-14.34997,-12.95379
143.60000,-14.35983,-12.96944
143.70002,-14.36996,-12.98970
143.80000,-14.38010,-13.01372
143.90002,-14.39010,-13.03771
144.00000,-14.39970,-13.05981
144.10000,-14.40970,-13.08092
144.20002,-14.42010,-13.11450
144.30000,-14.42983,-13.12854
144.40002,-14.43983,-13.14607
144.50000,-14.44983,-13.18072
144.60000,-14.45956,-13.19938
144.70002,-14.46996,-13.23198
144.80000,-14.47996,-13.25900
144.90002,-14.48970,-13.27740
145.00000,-14.49996,-13.31685
145.10000,-14.50996,-13.34317
145.20002,-14.51983,-13.37103
145.30000,-14.52996,-13.39681
145.40002,-14.53970,-13.42454
145.50000,-14.54983,-13.45663
145.60000,-14.55970,-13.48194
145.70002,-14.56970,-13.51016
145.80000,-14.57970,-13.54655
145.90002,-14.58956,-13.57189
146.00000,-14.60010,-13.61877
146.10000,-14.60983,-13.63838
146.20002,-14.61996,-13.66754
146.30000,-14.63010,-13.70485
146.40002,-14.63956,-13.72814
146.50000,-14.64996,-13.76389
146.60000,-14.65996,-13.79244
146.70002,-14.66970,-13.81001
146.80000,-14.67996,-13.84874
146.90002,-14.68970,-13.88151
147.00000,-14.69970,-13.90808
147.10000,-14.70996,-13.93574
147.20002,-14.71996,-13.96861
147.30000,-14.72983,-14.00432
147.40002,-14.73996,-14.03237
147.50000,-14.75010,-14.06494
147.60000,-14.75996,-14.09128
147.70002,-14.76996,-14.11716
147.80000,-14.77996,-14.15234
147.90002,-14.78970,-14.16769
148.00000,-14.80010,-14.18795
148.10000,-14.80996,-14.21746
148.20002,-14.81956,-14.22107
148.30000,-14.82983,-14.24966
148.40002,-14.83970,-14.27315
148.50000,-14.84970,-14.30129
148.60000,-14.86010,-14.33765
148.70002,-14.86983,-14.35600
148.80000,-14.87996,-14.38430
148.90002,-14.89010,-14.41646
149.00000,-14.90010,-14.45120
149.10000,-14.90996,-14.47511
149.20002,-14.91983,-14.50681
149.30000,-14.92996,-14.53844
149.40002,-14.93970,-14.56423
149.50000,-14.95010,-14.60392
149.60000,-14.95970,-14.63675
149.70002,-14.96956,-14.66074
149.80000,-14.98010,-14.70548
149.90002,-14.98983,-14.73376
150.00000,-14.99996,-14.76313
150.10000,-15.01010,-14.79680
150.20002,-15.01970,-14.82367
150.30000,-15.02996,-14.85415
150.33400,-15.03343,-14.86381
