Time,Extension,Load
(sec),(mm),(N)
0.00000,-0.00027,-0.02646
0.10000,-0.00280,-0.03448
0.20000,-0.01253,-0.04205
0.30000,-0.02613,-0.04522
0.40000,-0.03760,-0.05311
0.50000,-0.04867,-0.05692
0.60000,-0.05973,-0.05593
0.70000,-0.06973,-0.06727
0.80000,-0.07987,-0.07365
0.90000,-0.09013,-0.07169
1.00000,-0.10013,-0.07617
1.10000,-0.11013,-0.07682
1.20000,-0.12040,-0.08909
1.30000,-0.13013,-0.09220
1.40000,-0.14000,-0.09849
1.50000,-0.15040,-0.10390
1.60000,-0.16027,-0.10744
1.70000,-0.17013,-0.11961
1.80000,-0.18040,-0.12592
1.90000,-0.19000,-0.12359
2.00000,-0.20013,-0.13673
2.10000,-0.21040,-0.12198
2.20000,-0.22013,-0.13904
2.30000,-0.23027,-0.13892
2.40000,-0.24027,-0.14445
2.50000,-0.25027,-0.13952
2.60000,-0.26027,-0.14595
2.70000,-0.27027,-0.15055
2.80000,-0.28027,-0.15824
2.90000,-0.29027,-0.15641
3.00000,-0.30040,-0.16963
3.10000,-0.31000,-0.16219
3.20000,-0.32000,-0.17890
3.30000,-0.33053,-0.18191
3.40000,-0.34013,-0.18507
3.50000,-0.35040,-0.18798
3.60000,-0.36040,-0.19565
3.70000,-0.37000,-0.19869
3.80000,-0.38040,-0.20725
3.90000,-0.39027,-0.21004
4.00000,-0.40013,-0.22068
4.10000,-0.41013,-0.21881
4.20000,-0.42000,-0.22864
4.30000,-0.43013,-0.23494
4.40000,-0.44000,-0.24453
4.50000,-0.45013,-0.24761
4.60000,-0.46000,-0.24641
4.70000,-0.47013,-0.26118
4.80000,-0.48040,-0.27006
4.90000,-0.49013,-0.26816
5.00000,-0.50013,-0.28288
5.10000,-0.51040,-0.27361
5.20000,-0.52000,-0.29369
5.30000,-0.53040,-0.29588
5.40000,-0.54040,-0.30953
5.50000,-0.55000,-0.31247
5.60000,-0.56027,-0.31158
5.70000,-0.57027,-0.31950
5.80000,-0.58000,-0.33024
5.90000,-0.59013,-0.33016
6.00000,-0.60013,-0.33740
6.10000,-0.61027,-0.33861
6.20000,-0.62040,-0.35205
6.30000,-0.63027,-0.35715
6.40000,-0.64027,-0.36482
6.50000,-0.65027,-0.36535
6.60000,-0.66040,-0.37163
6.70000,-0.67013,-0.37816
6.80000,-0.68040,-0.38931
6.90000,-0.69026,-0.39899
7.00000,-0.69986,-0.41897
7.10000,-0.71040,-0.42091
7.20000,-0.72013,-0.43894
7.30000,-0.73013,-0.45267
7.40000,-0.74040,-0.46400
7.50000,-0.75000,-0.47181
7.60000,-0.76013,-0.47999
7.70000,-0.77040,-0.49895
7.80000,-0.78040,-0.51534
7.90000,-0.79026,-0.52247
8.00000,-0.80040,-0.54091
8.10000,-0.81026,-0.53993
8.20000,-0.82013,-0.56602
8.30000,-0.83040,-0.56922
8.40000,-0.84013,-0.58296
8.50000,-0.85000,-0.60113
8.60000,-0.86040,-0.60923
8.70000,-0.87013,-0.61588
8.80000,-0.88013,-0.64085
8.90000,-0.89053,-0.65209
9.00000,-0.90026,-0.66027
9.10000,-0.91026,-0.66234
9.20000,-0.92040,-0.69021
9.30000,-0.93000,-0.70162
9.40000,-0.94026,-0.71740
9.50000,-0.95040,-0.72912
9.60000,-0.96013,-0.74513
9.70000,-0.97013,-0.76448
9.80000,-0.98000,-0.78080
9.90000,-0.99013,-0.79242
10.00000,-1.00013,-0.81252
10.10000,-1.01040,-0.82075
10.20000,-1.02026,-0.84547
10.30000,-1.03000,-0.85826
10.40000,-1.04053,-0.87166
10.50000,-1.05013,-0.88709
10.60000,-1.06013,-0.89890
10.70000,-1.07040,-0.92367
10.80000,-1.08000,-0.93522
10.90000,-1.09013,-0.94877
11.00000,-1.10026,-0.97016
11.10000,-1.11000,-0.97284
11.20000,-1.12013,-0.99728
11.30000,-1.13026,-1.01142
11.40000,-1.14013,-1.02326
11.50000,-1.15026,-1.03889
11.60000,-1.16040,-1.05400
11.70000,-1.17026,-1.07371
11.80000,-1.18026,-1.08938
11.90000,-1.19040,-1.10473
12.00000,-1.20026,-1.12256
12.10000,-1.21013,-1.12534
12.20000,-1.22026,-1.15267
12.30000,-1.23000,-1.16554
12.40000,-1.24013,-1.17838
12.50000,-1.25026,-1.19326
12.60000,-1.26000,-1.20730
12.70000,-1.27040,-1.22462
12.80000,-1.28026,-1.24392
12.90000,-1.29013,-1.25420
13.00000,-1.30040,-1.27485
13.10000,-1.31013,-1.27735
13.20000,-1.32026,-1.30243
13.30000,-1.33040,-1.32045
13.40000,-1.34040,-1.33136
13.50000,-1.35013,-1.34090
13.60000,-1.36000,-1.35195
13.70000,-1.37040,-1.37673
13.80000,-1.38000,-1.38985
13.90000,-1.39026,-1.40523
14.00000,-1.40026,-1.42304
14.10000,-1.40986,-1.42320
14.20000,-1.42040,-1.45084
14.30000,-1.43026,-1.46731
14.40000,-1.44013,-1.48256
14.50000,-1.45040,-1.49265
14.60000,-1.46026,-1.50293
14.70000,-1.47026,-1.52165
14.80000,-1.48026,-1.53171
14.90000,-1.49013,-1.54660
15.00000,-1.50026,-1.56618
15.10000,-1.51013,-1.57125
15.20000,-1.52000,-1.59656
15.30000,-1.53013,-1.60859
15.40000,-1.54013,-1.62382
15.50000,-1.55026,-1.63529
15.60000,-1.56013,-1.64800
15.70000,-1.57026,-1.66078
15.80000,-1.58040,-1.68638
15.90000,-1.59013,-1.69226
16.00000,-1.60040,-1.70690
16.10000,-1.61013,-1.71524
16.20000,-1.62013,-1.74092
16.30000,-1.63040,-1.75086
16.40000,-1.63986,-1.76544
16.50000,-1.65000,-1.78126
16.60000,-1.66026,-1.78630
16.70000,-1.67026,-1.80676
16.80000,-1.68013,-1.81820
16.90000,-1.69026,-1.83419
17.00000,-1.70040,-1.85286
17.10000,-1.71026,-1.86022
17.20000,-1.72040,-1.87520
17.30000,-1.73026,-1.88549
17.40000,-1.74000,-1.90253
17.50000,-1.75040,-1.92086
17.60000,-1.76013,-1.92653
17.70000,-1.77000,-1.95011
17.80000,-1.78026,-1.95988
17.90000,-1.79000,-1.97499
18.00000,-1.80026,-1.98594
18.10000,-1.81040,-1.99446
18.20000,-1.82026,-2.01390
18.30000,-1.83040,-2.02378
18.40000,-1.84040,-2.04610
18.50000,-1.85026,-2.05542
18.60000,-1.86026,-2.06384
18.70000,-1.87040,-2.07976
18.80000,-1.88026,-2.09735
18.90000,-1.89013,-2.10089
19.00000,-1.90040,-2.12316
19.10000,-1.91013,-2.12576
19.20000,-1.92000,-2.15153
19.30000,-1.93040,-2.15709
19.40000,-1.94000,-2.17406
19.50000,-1.95026,-2.18269
19.60000,-1.96026,-2.19126
19.70000,-1.96986,-2.21058
19.80000,-1.98040,-2.22130
19.90000,-1.99040,-2.23658
20.00000,-2.00026,-2.25139
20.10000,-2.01013,-2.25159
20.20000,-2.02000,-2.26986
20.30000,-2.03013,-2.27881
20.40000,-2.04000,-2.29943
20.50000,-2.05013,-2.30577
20.60000,-2.05999,-2.31644
20.70000,-2.06986,-2.33659
20.80000,-2.08039,-2.34605
20.90000,-2.09013,-2.35167
21.00000,-2.10026,-2.37725
21.10000,-2.11053,-2.37847
21.20000,-2.12013,-2.39222
21.30000,-2.13026,-2.39509
21.40000,-2.14039,-2.42226
21.50000,-2.14999,-2.43384
21.60000,-2.16026,-2.44276
21.70000,-2.17026,-2.45246
21.80000,-2.17999,-2.47102
21.90000,-2.19013,-2.48192
22.00000,-2.19999,-2.49501
22.10000,-2.21026,-2.50002
22.20000,-2.22039,-2.51974
22.30000,-2.23039,-2.52482
22.40000,-2.24026,-2.53970
22.50000,-2.25026,-2.54714
22.60000,-2.26039,-2.56148
22.70000,-2.27013,-2.57324
22.80000,-2.28026,-2.59243
22.90000,-2.29026,-2.59837
23.00000,-2.29986,-2.61422
23.10000,-2.31026,-2.61813
23.20000,-2.32013,-2.63432
23.30000,-2.32999,-2.63944
23.40000,-2.34026,-2.65547
23.50000,-2.35013,-2.66812
23.60000,-2.36026,-2.66891
23.70000,-2.37039,-2.68842
23.80000,-2.38039,-2.69527
23.90000,-2.39026,-2.71161
24.00000,-2.40026,-2.72821
24.10000,-2.41039,-2.73504
24.20000,-2.42026,-2.74166
24.30000,-2.43026,-2.75238
24.40000,-2.44013,-2.76369
24.50000,-2.44999,-2.77966
24.60000,-2.46039,-2.78367
24.70000,-2.47026,-2.79966
24.80000,-2.48013,-2.81369
24.90000,-2.49039,-2.82084
25.00000,-2.50026,-2.82812
25.10000,-2.51026,-2.83426
25.20000,-2.52039,-2.85419
25.30000,-2.53013,-2.85604
25.40000,-2.54039,-2.86720
25.50000,-2.55039,-2.87736
25.60000,-2.56013,-2.88916
25.70000,-2.57013,-2.90109
25.80000,-2.57999,-2.91435
25.90000,-2.59013,-2.91774
26.00000,-2.59999,-2.93519
26.10000,-2.61039,-2.93443
26.20000,-2.62026,-2.95138
26.30000,-2.62999,-2.95922
26.40000,-2.64039,-2.97254
26.50000,-2.65013,-2.98000
26.60000,-2.66026,-2.99077
26.70000,-2.67039,-3.00470
26.80000,-2.67999,-3.01313
26.90000,-2.69013,-3.02004
27.00000,-2.70039,-3.03017
27.10000,-2.71013,-3.03431
27.20000,-2.72013,-3.04920
27.30000,-2.73026,-3.04662
27.40000,-2.74013,-3.06252
27.50000,-2.75026,-3.07636
27.60000,-2.76039,-3.07890
27.70000,-2.77026,-3.09434
27.80000,-2.78039,-3.10611
27.90000,-2.79039,-3.11868
28.00000,-2.80026,-3.12401
28.10000,-2.81013,-3.11959
28.20000,-2.82039,-3.14630
28.30000,-2.82999,-3.14813
28.40000,-2.84013,-3.16314
28.50000,-2.85026,-3.16050
28.60000,-2.85986,-3.16551
28.70000,-2.87026,-3.18170
28.80000,-2.88039,-3.19280
28.90000,-2.89013,-3.19665
29.00000,-2.90039,-3.20961
29.10000,-2.91013,-3.21017
29.20000,-2.92026,-3.23150
29.30000,-2.93026,-3.23042
29.40000,-2.94039,-3.23808
29.50000,-2.95013,-3.24690
29.60000,-2.96013,-3.25288
29.70000,-2.97039,-3.27058
29.80000,-2.97999,-3.27148
29.90000,-2.99026,-3.28360
30.00000,-3.00026,-3.29230
30.10000,-3.00999,-3.28778
30.20000,-3.02039,-3.30347
30.30000,-3.03039,-3.31330
30.40000,-3.04013,-3.32478
30.50000,-3.05039,-3.33063
30.60000,-3.06013,-3.33142
30.70000,-3.07026,-3.34155
30.80000,-3.08039,-3.35271
30.90000,-3.09013,-3.36139
31.00000,-3.10013,-3.36611
31.10000,-3.11013,-3.36965
31.20000,-3.12013,-3.38259
31.30000,-3.13013,-3.38620
31.40000,-3.14013,-3.40336
31.50000,-3.15039,-3.39769
31.60000,-3.16013,-3.41117
31.70000,-3.17039,-3.41599
31.80000,-3.18026,-3.43045
31.90000,-3.19013,-3.43324
32.00000,-3.20053,-3.44353
32.10000,-3.21013,-3.44031
32.20000,-3.22013,-3.45375
32.30000,-3.23039,-3.45571
32.40000,-3.23986,-3.47115
32.50000,-3.25013,-3.47671
32.60000,-3.26026,-3.47813
32.70000,-3.27026,-3.49068
32.80000,-3.28026,-3.49823
32.90000,-3.29026,-3.50919
33.00000,-3.30026,-3.51954
33.10000,-3.31039,-3.51530
33.20000,-3.32039,-3.52982
33.30000,-3.33026,-3.53588
33.40000,-3.33999,-3.54425
33.50000,-3.35039,-3.54450
33.60000,-3.36026,-3.54950
33.70000,-3.36999,-3.56791
33.80000,-3.38026,-3.57241
33.90000,-3.38999,-3.57392
34.00000,-3.40013,-3.58980
34.10000,-3.41039,-3.57729
34.20000,-3.42012,-3.59826
34.30000,-3.43026,-3.60006
34.40000,-3.44039,-3.61728
34.50000,-3.45039,-3.61734
34.60000,-3.46039,-3.61841
34.70000,-3.47039,-3.62995
34.80000,-3.48026,-3.63839
34.90000,-3.48999,-3.64368
35.00000,-3.50039,-3.64749
35.10000,-3.51012,-3.64707
35.20000,-3.51999,-3.66610
35.30000,-3.53039,-3.66420
35.40000,-3.53999,-3.67695
35.50000,-3.55026,-3.67638
35.60000,-3.56052,-3.68501
35.70000,-3.56999,-3.69441
35.80000,-3.58039,-3.69929
35.90000,-3.59039,-3.70287
36.00000,-3.60012,-3.71683
36.10000,-3.61012,-3.71349
36.20000,-3.62012,-3.72820
36.30000,-3.63012,-3.72473
36.40000,-3.64012,-3.74496
36.50000,-3.65012,-3.74787
36.60000,-3.65999,-3.74686
36.70000,-3.66999,-3.75580
36.80000,-3.68039,-3.76389
36.90000,-3.69012,-3.76736
37.00000,-3.70026,-3.77316
37.10000,-3.71052,-3.77335
37.20000,-3.72012,-3.78134
37.30000,-3.73039,-3.78435
37.40000,-3.74039,-3.80230
37.50000,-3.74999,-3.80357
37.60000,-3.76026,-3.80361
37.70000,-3.77026,-3.81357
37.80000,-3.78012,-3.82728
37.90000,-3.79012,-3.82535
38.00000,-3.79999,-3.83310
38.10000,-3.81026,-3.83125
38.20000,-3.82039,-3.84742
38.30000,-3.83039,-3.84385
38.40000,-3.84026,-3.85153
38.50000,-3.85026,-3.85731
38.60000,-3.86039,-3.86180
38.70000,-3.87012,-3.86999
38.80000,-3.88026,-3.88096
38.90000,-3.89026,-3.87843
39.00000,-3.89986,-3.89407
39.10000,-3.91039,-3.88983
39.20000,-3.92012,-3.89933
39.30000,-3.93012,-3.90515
39.40000,-3.94039,-3.91121
39.50000,-3.95012,-3.91593
39.60000,-3.96026,-3.91654
39.70000,-3.97039,-3.93321
39.80000,-3.98026,-3.93427
39.90000,-3.99026,-3.93290
40.00000,-4.00026,-3.94344
40.10000,-4.01026,-3.94664
40.20000,-4.02012,-3.95349
40.30000,-4.03039,-3.96169
40.40000,-4.04026,-3.97252
40.50000,-4.04986,-3.97579
40.60000,-4.06026,-3.96948
40.70000,-4.07012,-3.97802
40.80000,-4.08012,-3.99382
40.90000,-4.09052,-3.99681
41.00000,-4.10026,-3.99715
41.10000,-4.11026,-3.99713
41.20000,-4.12039,-4.00707
41.30000,-4.13012,-4.01308
41.40000,-4.14039,-4.01874
41.50000,-4.15026,-4.02113
41.60000,-4.15999,-4.02318
41.70000,-4.17012,-4.03212
41.80000,-4.18012,-4.04105
41.90000,-4.19039,-4.04159
42.00000,-4.20026,-4.04627
42.10000,-4.21026,-4.04658
42.20000,-4.22026,-4.05424
42.30000,-4.22999,-4.06255
42.40000,-4.24039,-4.07121
42.50000,-4.25012,-4.07428
42.60000,-4.26012,-4.07395
42.70000,-4.27026,-4.08274
42.80000,-4.27986,-4.08609
42.90000,-4.29012,-4.09237
43.00000,-4.30039,-4.10089
43.10000,-4.31012,-4.09467
43.20000,-4.32012,-4.10771
43.30000,-4.33026,-4.11470
43.40000,-4.34026,-4.11467
43.50000,-4.35039,-4.12053
43.60000,-4.36039,-4.12303
43.70000,-4.37026,-4.13526
43.80000,-4.38026,-4.14164
43.90000,-4.39052,-4.14620
44.00000,-4.40026,-4.14785
44.10000,-4.41026,-4.14881
44.20000,-4.42039,-4.16326
44.30000,-4.42999,-4.16681
44.40000,-4.43999,-4.17345
44.50000,-4.45012,-4.17512
44.60000,-4.45986,-4.17021
44.70000,-4.47026,-4.18258
44.80000,-4.48039,-4.19089
44.90000,-4.49026,-4.19428
45.00000,-4.50026,-4.20064
45.10000,-4.51012,-4.19855
45.20000,-4.52039,-4.21074
45.30000,-4.53026,-4.21245
45.40000,-4.54026,-4.22228
45.50000,-4.55012,-4.22496
45.60000,-4.55986,-4.22537
45.70000,-4.57026,-4.23491
45.80000,-4.57999,-4.24304
45.90000,-4.59026,-4.24124
46.00000,-4.60026,-4.25433
46.10000,-4.60999,-4.24861
46.20000,-4.62039,-4.26531
46.30000,-4.63026,-4.26462
46.40000,-4.64012,-4.27494
46.50000,-4.65039,-4.27583
46.60000,-4.66026,-4.27276
46.70000,-4.67026,-4.28353
46.80000,-4.68039,-4.29300
46.90000,-4.69012,-4.29382
47.00000,-4.70026,-4.29887
47.10000,-4.71012,-4.30053
47.20000,-4.71999,-4.30943
47.30000,-4.72999,-4.31301
47.40000,-4.74012,-4.32550
47.50000,-4.75039,-4.32336
47.60000,-4.76012,-4.32158
47.70000,-4.77039,-4.33092
47.80000,-4.78039,-4.34329
47.90000,-4.79012,-4.34283
48.00000,-4.80052,-4.35195
48.10000,-4.81026,-4.34234
48.20000,-4.82012,-4.36030
48.30000,-4.83039,-4.35906
48.40000,-4.83999,-4.37012
48.50000,-4.85012,-4.37190
48.60000,-4.86025,-4.36956
48.70000,-4.87012,-4.38357
48.80000,-4.88012,-4.38172
48.90000,-4.89025,-4.39129
49.00000,-4.90025,-4.39973
49.10000,-4.91039,-4.38965
49.20000,-4.92039,-4.40585
49.30000,-4.93025,-4.40767
49.40000,-4.93999,-4.41640
49.50000,-4.95039,-4.41694
49.60000,-4.96025,-4.41871
49.70000,-4.96999,-4.42497
49.80000,-4.98025,-4.42930
49.90000,-4.98999,-4.43688
50.00000,-5.00012,-4.43915
50.10000,-5.01039,-4.43200
50.20000,-5.02012,-4.45361
50.30000,-5.03025,-4.45120
50.40000,-5.04025,-4.46245
50.50000,-5.05025,-4.45847
50.60000,-5.06025,-4.46425
50.70000,-5.07025,-4.47262
50.80000,-5.08012,-4.47485
50.90000,-5.08999,-4.48371
51.00000,-5.10039,-4.49344
51.10000,-5.11012,-4.48201
51.20000,-5.11999,-4.49687
51.30000,-5.13039,-4.49587
51.40000,-5.14025,-4.50342
51.50000,-5.15039,-4.50687
51.60000,-5.16039,-4.51084
51.70000,-5.16999,-4.51248
51.80000,-5.18039,-4.51733
51.90000,-5.19039,-4.52620
52.00000,-5.20025,-4.52938
52.10000,-5.21025,-4.52588
52.20000,-5.21999,-4.53572
52.30000,-5.22999,-4.54092
52.40000,-5.24012,-4.54737
52.50000,-5.24999,-4.55330
52.60000,-5.26012,-4.55180
52.70000,-5.26999,-4.55946
52.80000,-5.28039,-4.56060
52.90000,-5.29025,-4.56853
53.00000,-5.30025,-4.57745
53.10000,-5.31039,-4.56539
53.20000,-5.31999,-4.58182
53.30000,-5.33025,-4.58246
53.40000,-5.34025,-4.59267
53.50000,-5.34999,-4.59688
53.60000,-5.36039,-4.59315
53.70000,-5.37012,-4.59814
53.80000,-5.37999,-4.60950
53.90000,-5.39012,-4.60828
54.00000,-5.40012,-4.61239
54.10000,-5.41025,-4.61365
54.20000,-5.42052,-4.62758
54.30000,-5.43039,-4.62521
54.40000,-5.44025,-4.63620
54.50000,-5.45025,-4.63540
54.60000,-5.46039,-4.64307
54.70000,-5.47012,-4.64141
54.80000,-5.48039,-4.65568
54.90000,-5.49025,-4.65208
55.00000,-5.49999,-4.66230
55.10000,-5.51039,-4.66109
55.20000,-5.52012,-4.66909
55.30000,-5.53012,-4.66875
55.40000,-5.54039,-4.67764
55.50000,-5.55012,-4.67691
55.60000,-5.56025,-4.68191
55.70000,-5.57052,-4.69232
55.80000,-5.58039,-4.69469
55.90000,-5.59025,-4.69406
56.00000,-5.60025,-4.70460
56.10000,-5.61025,-4.70385
56.20000,-5.62012,-4.70695
56.30000,-5.63039,-4.70786
56.40000,-5.64012,-4.71449
56.50000,-5.64999,-4.72647
56.60000,-5.66039,-4.71953
56.70000,-5.67012,-4.72652
56.80000,-5.67999,-4.74041
56.90000,-5.69052,-4.73365
57.00000,-5.70025,-4.73901
57.10000,-5.71012,-4.73812
57.20000,-5.72052,-4.75177
57.30000,-5.73012,-4.74772
57.40000,-5.74025,-4.75776
57.50000,-5.75012,-4.75574
57.60000,-5.75999,-4.76152
57.70000,-5.77012,-4.76539
57.80000,-5.77999,-4.77824
57.90000,-5.79012,-4.77735
58.00000,-5.79999,-4.78644
58.10000,-5.81025,-4.77484
58.20000,-5.82025,-4.78703
58.30000,-5.82999,-4.79365
58.40000,-5.84052,-4.80429
58.50000,-5.85025,-4.79825
58.60000,-5.86025,-4.80240
58.70000,-5.87052,-4.82043
58.80000,-5.87985,-4.81297
58.90000,-5.89012,-4.81910
59.00000,-5.90025,-4.82214
59.10000,-5.90985,-4.82123
59.20000,-5.92012,-4.83539
59.30000,-5.93025,-4.83728
59.40000,-5.94025,-4.83712
59.50000,-5.95039,-4.83774
59.60000,-5.96039,-4.84352
59.70000,-5.97025,-4.85121
59.80000,-5.98025,-4.85505
59.90000,-5.99039,-4.86071
60.00000,-6.00025,-4.86249
60.10000,-6.01025,-4.86200
60.20000,-6.02039,-4.87825
60.30000,-6.03012,-4.87197
60.40000,-6.04012,-4.88124
60.50000,-6.05012,-4.88403
60.60000,-6.05985,-4.88334
60.70000,-6.07039,-4.88846
60.80000,-6.08039,-4.90066
60.90000,-6.09012,-4.89653
61.00000,-6.10038,-4.90120
61.10000,-6.11025,-4.90108
61.20000,-6.12039,-4.91480
61.30000,-6.13039,-4.91816
61.40000,-6.14038,-4.92097
61.50000,-6.15012,-4.92018
61.60000,-6.15998,-4.92636
61.70000,-6.17025,-4.92816
61.80000,-6.17999,-4.93541
61.90000,-6.19025,-4.94183
62.00000,-6.20025,-4.94299
62.10000,-6.20998,-4.94228
62.20000,-6.22038,-4.95170
62.30000,-6.23025,-4.95253
62.40000,-6.24012,-4.96104
62.50000,-6.25038,-4.96335
62.60000,-6.26012,-4.96536
62.70000,-6.27012,-4.96754
62.80000,-6.28025,-4.97676
62.90000,-6.28998,-4.97923
63.00000,-6.30012,-4.98224
63.10000,-6.31012,-4.97672
63.20000,-6.31998,-4.99455
63.30000,-6.33012,-4.99421
63.40000,-6.34012,-4.99772
63.50000,-6.35038,-5.00106
63.60000,-6.36012,-4.99968
63.70000,-6.37038,-5.01228
63.80000,-6.38038,-5.01532
63.90000,-6.38998,-5.01629
64.00000,-6.40052,-5.02374
64.10001,-6.41012,-5.02039
64.20000,-6.42012,-5.03225
64.30000,-6.43025,-5.03297
64.40000,-6.43985,-5.03419
64.50000,-6.45012,-5.04006
64.60001,-6.46025,-5.04000
64.70000,-6.47025,-5.04630
64.80000,-6.48025,-5.05578
64.90000,-6.49025,-5.05310
65.00000,-6.50025,-5.05646
65.10001,-6.51038,-5.05458
65.20000,-6.52052,-5.06872
65.30000,-6.53025,-5.06860
65.40000,-6.53998,-5.07001
65.50000,-6.55038,-5.07580
65.60001,-6.56012,-5.07884
65.70001,-6.57012,-5.08849
65.80000,-6.58038,-5.09099
65.90000,-6.58998,-5.09078
66.00000,-6.60025,-5.10251
66.10001,-6.61052,-5.09956
66.20001,-6.62012,-5.11165
66.30000,-6.63025,-5.10481
66.40000,-6.64025,-5.10498
66.50000,-6.65025,-5.11764
66.60001,-6.66025,-5.11999
66.70001,-6.67025,-5.12648
66.80000,-6.68025,-5.13130
66.90000,-6.69012,-5.13222
67.00000,-6.70038,-5.14073
67.10001,-6.71012,-5.12960
67.20001,-6.71985,-5.15120
67.30000,-6.73038,-5.14428
67.40000,-6.74012,-5.15286
67.50000,-6.75038,-5.14991
67.60001,-6.76038,-5.15506
67.70001,-6.76998,-5.15596
67.80000,-6.78038,-5.16217
67.90000,-6.79038,-5.16107
68.00000,-6.80012,-5.17791
68.10001,-6.81025,-5.16376
68.20001,-6.81998,-5.17988
68.30000,-6.82998,-5.18476
68.40000,-6.84012,-5.18291
68.50000,-6.85012,-5.19006
68.60001,-6.85998,-5.18909
68.70001,-6.86998,-5.19871
68.80000,-6.88038,-5.19629
68.90000,-6.89025,-5.20464
69.00000,-6.90025,-5.20405
69.10001,-6.91038,-5.18957
69.20001,-6.92012,-5.16163
69.30000,-6.93038,-5.16816
69.40000,-6.94038,-5.16676
69.50000,-6.94998,-5.17434
69.60001,-6.96025,-5.17539
69.70001,-6.97025,-5.19056
69.80000,-6.97998,-5.19343
69.90000,-6.99025,-5.19192
70.00000,-6.99998,-5.20747
70.10001,-7.01012,-5.20163
70.20001,-7.02038,-5.21239
70.30000,-7.03038,-5.21051
70.40000,-7.04038,-5.22366
70.50000,-7.05025,-5.22779
70.60001,-7.06038,-5.22373
70.70001,-7.07012,-5.23363
70.80000,-7.08038,-5.23949
70.90000,-7.09025,-5.24326
71.00000,-7.09998,-5.25106
71.10001,-7.11038,-5.24573
71.20001,-7.12012,-5.25766
71.30000,-7.12998,-5.26218
71.40000,-7.14038,-5.25751
71.50000,-7.15025,-5.26470
71.60001,-7.16025,-5.26490
71.70001,-7.17052,-5.27303
71.80000,-7.18025,-5.28095
71.90000,-7.19025,-5.28103
72.00000,-7.20025,-5.29140
72.10001,-7.21012,-5.28632
72.20001,-7.21998,-5.29459
72.30000,-7.23038,-5.29534
72.40000,-7.24012,-5.29560
72.50000,-7.24998,-5.30926
72.60001,-7.26038,-5.30516
72.70001,-7.27025,-5.31594
72.80000,-7.28012,-5.31781
72.90000,-7.29038,-5.31617
73.00000,-7.30025,-5.32527
73.10001,-7.31025,-5.32417
73.20001,-7.32038,-5.33353
73.30000,-7.32998,-5.34288
73.40000,-7.34025,-5.34458
73.50000,-7.35025,-5.34583
73.60001,-7.35998,-5.34600
73.70001,-7.36998,-5.34668
73.80000,-7.37998,-5.36117
73.90000,-7.39012,-5.35869
74.00000,-7.40012,-5.36695
74.10001,-7.41038,-5.35900
74.20001,-7.42025,-5.37391
74.30000,-7.43012,-5.36919
74.40000,-7.44052,-5.37253
74.50000,-7.45025,-5.37844
74.60001,-7.46012,-5.37812
74.70001,-7.47038,-5.38346
74.80000,-7.47998,-5.39742
74.90000,-7.49025,-5.39262
75.00000,-7.50051,-5.39269
75.10001,-7.50998,-5.39415
75.20001,-7.52012,-5.41359
75.30000,-7.53025,-5.40667
75.40000,-7.54025,-5.41056
75.50000,-7.55038,-5.41583
75.60001,-7.56038,-5.41853
75.70001,-7.57025,-5.42661
75.80000,-7.58025,-5.42521
75.90000,-7.59038,-5.43157
76.00000,-7.60025,-5.43915
76.10001,-7.61011,-5.43136
76.20001,-7.62038,-5.43712
76.30000,-7.62998,-5.44171
76.40000,-7.63998,-5.45485
76.50000,-7.65025,-5.45391
76.60001,-7.65985,-5.45005
76.70001,-7.67038,-5.46202
76.80000,-7.68038,-5.46711
76.90000,-7.69011,-5.46557
77.00000,-7.70038,-5.47334
77.10001,-7.71025,-5.46933
77.20001,-7.72025,-5.47662
77.30000,-7.73038,-5.47732
77.40000,-7.74025,-5.48591
77.50000,-7.75011,-5.49040
77.60001,-7.75998,-5.49772
77.70001,-7.77038,-5.49809
77.80000,-7.78011,-5.50903
77.90000,-7.79011,-5.50635
78.00000,-7.80025,-5.50815
78.10001,-7.80998,-5.50231
78.20001,-7.82038,-5.51088
78.30000,-7.83038,-5.50795
78.40000,-7.84011,-5.51431
78.50000,-7.85025,-5.52384
78.60001,-7.86025,-5.52171
78.70001,-7.87011,-5.52532
78.80000,-7.88025,-5.53622
78.90000,-7.89011,-5.54085
79.00000,-7.90011,-5.55141
79.10001,-7.91011,-5.53638
79.20001,-7.92011,-5.55434
79.30000,-7.93011,-5.54736
79.40000,-7.94011,-5.55391
79.50000,-7.95038,-5.55183
79.60001,-7.96011,-5.55566
79.70001,-7.97025,-5.56123
79.80000,-7.98038,-5.56260
79.90000,-7.98998,-5.57316
80.00000,-8.00038,-5.57812
80.10001,-8.01025,-5.57113
80.20001,-8.02011,-5.58299
80.30000,-8.03011,-5.58412
80.40000,-8.03985,-5.58184
80.50001,-8.04998,-5.59464
80.60001,-8.06025,-5.59511
80.70001,-8.07038,-5.59590
80.80000,-8.08025,-5.60062
80.90000,-8.09038,-5.60182
81.00001,-8.10051,-5.61040
81.10001,-8.11038,-5.59974
81.20001,-8.12051,-5.61404
81.30000,-8.13025,-5.61468
81.40000,-8.14011,-5.61452
81.50001,-8.15038,-5.62495
81.60001,-8.16025,-5.62008
81.70001,-8.17011,-5.63291
81.80000,-8.18025,-5.63518
81.90000,-8.18998,-5.63497
82.00001,-8.20011,-5.64779
82.10001,-8.21051,-5.63831
82.20001,-8.22011,-5.64509
82.30000,-8.23025,-5.64961
82.40000,-8.24051,-5.65294
82.50001,-8.25025,-5.65754
82.60001,-8.26038,-5.65568
82.70001,-8.27038,-5.67220
82.80000,-8.28025,-5.67262
82.90000,-8.28998,-5.67632
83.00001,-8.30038,-5.67567
83.10001,-8.31011,-5.66974
83.20001,-8.31998,-5.68324
83.30000,-8.33051,-5.68470
83.40000,-8.34011,-5.68712
83.50001,-8.35038,-5.69365
83.60001,-8.36051,-5.69052
83.70001,-8.36998,-5.69429
83.80000,-8.38025,-5.69730
83.90000,-8.39038,-5.69199
84.00001,-8.40011,-5.70116
84.10001,-8.41025,-5.70279
84.20001,-8.41998,-5.71300
84.30000,-8.43011,-5.71585
84.40000,-8.44011,-5.71755
84.50001,-8.45011,-5.72918
84.60001,-8.46011,-5.72074
84.70001,-8.46985,-5.73518
84.80000,-8.48038,-5.74067
84.90000,-8.49011,-5.73304
85.00001,-8.50025,-5.74341
85.10001,-8.51038,-5.73632
85.20001,-8.51998,-5.74449
85.30000,-8.53025,-5.75141
85.40000,-8.54038,-5.74170
85.50001,-8.54998,-5.75967
85.60001,-8.56025,-5.75661
85.70001,-8.57025,-5.75869
85.80000,-8.58011,-5.76406
85.90000,-8.59025,-5.76256
86.00001,-8.60011,-5.76990
86.10001,-8.61025,-5.76379
86.20001,-8.62025,-5.78130
86.30000,-8.63038,-5.77747
86.40000,-8.64025,-5.78458
86.50001,-8.65025,-5.79288
86.60001,-8.66051,-5.79038
86.70001,-8.67011,-5.79891
86.80000,-8.68038,-5.80387
86.90000,-8.69025,-5.79817
87.00001,-8.69985,-5.81070
87.10001,-8.71025,-5.79937
87.20001,-8.72011,-5.81042
87.30000,-8.73011,-5.81688
87.40000,-8.74038,-5.81704
87.50001,-8.75025,-5.81667
87.60001,-8.76025,-5.81457
87.70001,-8.77051,-5.82039
87.80000,-8.78038,-5.82670
87.90000,-8.79025,-5.83330
88.00001,-8.80024,-5.83551
88.10001,-8.81025,-5.82981
88.20001,-8.82011,-5.84478
88.30000,-8.83038,-5.85132
88.40000,-8.84011,-5.85387
88.50001,-8.84998,-5.85634
88.60001,-8.86038,-5.85199
88.70001,-8.87024,-5.86521
88.80000,-8.88011,-5.87747
88.90000,-8.89038,-5.87188
89.00001,-8.90011,-5.87884
89.10001,-8.91011,-5.87138
89.20001,-8.92038,-5.88692
89.30000,-8.93011,-5.89447
89.40000,-8.94025,-5.89370
89.50001,-8.95024,-5.89925
89.60001,-8.96011,-5.89462
89.70001,-8.96998,-5.90930
89.80000,-8.97998,-5.91638
89.90000,-8.99024,-5.91989
90.00001,-8.99998,-5.91686
90.10001,-9.01025,-5.91549
90.20001,-9.02024,-5.93367
90.30000,-9.02998,-5.93221
90.40000,-9.04038,-5.93202
90.50001,-9.05024,-5.94044
90.60001,-9.06025,-5.94268
90.70001,-9.07038,-5.95181
90.80000,-9.07998,-5.95751
90.90000,-9.09011,-5.96673
91.00001,-9.10038,-5.96007
91.10001,-9.11011,-5.96124
91.20001,-9.11998,-5.97951
91.30000,-9.13024,-5.97683
91.40000,-9.14024,-5.98475
91.50001,-9.15038,-5.98759
91.60001,-9.16038,-5.98367
91.70001,-9.17024,-5.99663
91.80000,-9.18011,-6.00216
91.90000,-9.19038,-6.00886
92.00001,-9.20011,-6.01270
92.10001,-9.20998,-6.01065
92.20001,-9.22038,-6.01997
92.30000,-9.23011,-6.03016
92.40000,-9.24011,-6.03639
92.50001,-9.25024,-6.03972
92.60001,-9.25998,-6.03584
92.70001,-9.27038,-6.04468
92.80000,-9.28038,-6.05919
92.90000,-9.29011,-6.06141
93.00001,-9.30024,-6.06686
93.10001,-9.31011,-6.06094
93.20001,-9.32038,-6.07948
93.30000,-9.33051,-6.07554
93.40000,-9.34051,-6.08909
93.50001,-9.35024,-6.09590
93.60001,-9.35998,-6.08983
93.70001,-9.37024,-6.10736
93.80000,-9.37998,-6.11071
93.90000,-9.39024,-6.11542
94.00001,-9.40038,-6.11648
94.10001,-9.41024,-6.11520
94.20001,-9.42051,-6.12730
94.30000,-9.43038,-6.13097
94.40000,-9.44011,-6.14447
94.50001,-9.45038,-6.13798
94.60001,-9.46024,-6.13836
94.70001,-9.47024,-6.15379
94.80000,-9.48024,-6.15941
94.90000,-9.49011,-6.16720
95.00001,-9.50024,-6.17540
95.10001,-9.50998,-6.17173
95.20001,-9.52011,-6.18738
95.30000,-9.53011,-6.18958
95.40000,-9.54011,-6.19081
95.50001,-9.55038,-6.19635
95.60001,-9.56011,-6.19935
95.70001,-9.57024,-6.21223
95.80000,-9.58038,-6.20952
95.90000,-9.59011,-6.21528
96.00001,-9.60051,-6.22299
96.10001,-9.61011,-6.22336
96.20001,-9.62011,-6.23820
96.30000,-9.63024,-6.24061
96.40000,-9.63998,-6.24668
96.50001,-9.65011,-6.25145
96.60001,-9.66038,-6.25252
96.70001,-9.67024,-6.26758
96.80000,-9.68024,-6.27670
96.90000,-9.69024,-6.27708
97.00001,-9.70024,-6.28193
97.10001,-9.71024,-6.27555
97.20001,-9.72051,-6.28462
97.30000,-9.73024,-6.29380
97.40000,-9.73998,-6.30450
97.50001,-9.75038,-6.31206
97.60001,-9.76024,-6.30723
97.70001,-9.77011,-6.32367
97.80000,-9.78024,-6.32667
97.90000,-9.78998,-6.32461
98.00001,-9.80011,-6.34408
98.10001,-9.81038,-6.34006
98.20001,-9.82011,-6.35178
98.30000,-9.83024,-6.34846
98.40000,-9.84038,-6.36054
98.50001,-9.85024,-6.36586
98.60001,-9.86024,-6.36602
98.70001,-9.87038,-6.37502
98.80000,-9.88024,-6.38118
98.90000,-9.89011,-6.38351
99.00001,-9.90038,-6.39605
99.10001,-9.90998,-6.39623
99.20001,-9.91984,-6.40669
99.30000,-9.93038,-6.41084
99.40000,-9.94011,-6.41648
99.50001,-9.95038,-6.41835
99.60001,-9.96038,-6.42058
99.70001,-9.96998,-6.43364
99.80000,-9.98038,-6.43919
99.90000,-9.99038,-6.43878
100.00001,-10.00024,-6.45192
100.10001,-10.01024,-6.44454
100.20001,-10.02011,-6.45608
100.30000,-10.03011,-6.46251
100.40000,-10.04011,-6.46881
100.50001,-10.05011,-6.47757
100.60001,-10.06011,-6.47569
100.70001,-10.07011,-6.48926
100.80000,-10.08038,-6.49145
100.90000,-10.09024,-6.49932
101.00001,-10.10024,-6.50405
101.10001,-10.11038,-6.49882
101.20001,-10.11998,-6.51629
101.30000,-10.13024,-6.52891
101.40000,-10.14038,-6.52124
101.50001,-10.14998,-6.53227
101.60001,-10.16024,-6.52698
101.70001,-10.17024,-6.54430
101.80000,-10.17998,-6.55737
101.90000,-10.19024,-6.56346
102.00001,-10.19998,-6.56055
102.10001,-10.21024,-6.55534
102.20001,-10.22037,-6.57076
102.30000,-10.23024,-6.58053
102.40000,-10.24024,-6.59305
102.50001,-10.25024,-6.60084
102.60001,-10.26038,-6.60396
102.70001,-10.27011,-6.60819
102.80000,-10.28024,-6.62127
102.90000,-10.29011,-6.62496
103.00001,-10.29984,-6.64650
103.10001,-10.31024,-6.63862
103.20001,-10.32011,-6.65476
103.30000,-10.33011,-6.66676
103.40000,-10.34037,-6.67367
103.50001,-10.35011,-6.68267
103.60001,-10.36024,-6.69013
103.70001,-10.37051,-6.69724
103.80000,-10.38024,-6.70334
103.90000,-10.39024,-6.70815
104.00001,-10.40024,-6.71820
104.10001,-10.41037,-6.72605
104.20001,-10.42011,-6.74453
104.30000,-10.43037,-6.74856
104.40000,-10.44024,-6.75263
104.50001,-10.44997,-6.76399
104.60001,-10.46037,-6.76323
104.70001,-10.47011,-6.77472
104.80000,-10.48011,-6.80045
104.90000,-10.49051,-6.79511
105.00001,-10.50024,-6.80727
105.10001,-10.51024,-6.80772
105.20001,-10.52037,-6.82388
105.30000,-10.52997,-6.83914
105.40000,-10.54024,-6.84543
105.50001,-10.55024,-6.85959
105.60001,-10.55997,-6.85982
105.70001,-10.57011,-6.87775
105.80000,-10.57997,-6.88901
105.90000,-10.59011,-6.90251
106.00001,-10.60011,-6.90736
106.10001,-10.61037,-6.91231
106.20001,-10.62024,-6.93460
106.30000,-10.63011,-6.93847
106.40000,-10.64051,-6.95132
106.50001,-10.65024,-6.96502
106.60001,-10.66024,-6.97477
106.70001,-10.67037,-6.98660
106.80000,-10.67997,-7.00089
106.90000,-10.69011,-7.02030
107.00001,-10.70024,-7.02201
107.10001,-10.70997,-7.03233
107.20001,-10.72024,-7.05261
107.30000,-10.73024,-7.05732
107.40000,-10.74037,-7.07422
107.50001,-10.75051,-7.08091
107.60001,-10.76037,-7.09376
107.70001,-10.77037,-7.10940
107.80000,-10.78024,-7.12228
107.90000,-10.79037,-7.13417
108.00001,-10.80024,-7.14775
108.10001,-10.81011,-7.15295
108.20001,-10.82037,-7.17683
108.30000,-10.83011,-7.18635
108.40000,-10.84011,-7.20233
108.50001,-10.85024,-7.21018
108.60001,-10.85997,-7.21781
108.70001,-10.87037,-7.23711
108.80000,-10.88037,-7.25118
108.90000,-10.89011,-7.26217
109.00001,-10.90037,-7.27670
109.10001,-10.91011,-7.27780
109.20001,-10.92037,-7.30608
109.30000,-10.93037,-7.31246
109.40000,-10.94024,-7.33359
109.50001,-10.95011,-7.34218
109.60001,-10.95997,-7.35170
109.70001,-10.97037,-7.37470
109.80000,-10.97997,-7.39197
109.90000,-10.99024,-7.40323
110.00001,-11.00011,-7.41693
110.10001,-11.00997,-7.41973
110.20001,-11.02051,-7.44673
110.30000,-11.03037,-7.45202
110.40000,-11.04011,-7.47413
110.50001,-11.05037,-7.48618
110.60001,-11.06024,-7.50352
110.70001,-11.07024,-7.51613
110.80000,-11.08037,-7.53281
110.90000,-11.09011,-7.55277
111.00001,-11.10011,-7.56576
111.10001,-11.11011,-7.57340
111.20001,-11.12011,-7.60501
111.30000,-11.13011,-7.61961
111.40000,-11.14011,-7.63903
111.50001,-11.15037,-7.64540
111.60001,-11.16024,-7.65785
111.70001,-11.17037,-7.68099
111.80000,-11.18024,-7.69776
111.90000,-11.18997,-7.71570
112.00001,-11.20051,-7.73382
112.10001,-11.21011,-7.74050
112.20001,-11.22011,-7.76896
112.30000,-11.23037,-7.77349
112.40000,-11.23997,-7.79323
112.50001,-11.25011,-7.81326
112.60001,-11.26024,-7.81934
112.70001,-11.27024,-7.83760
112.80000,-11.28011,-7.86136
112.90001,-11.29024,-7.87853
113.00001,-11.30037,-7.89323
113.10001,-11.31024,-7.90839
113.20001,-11.32037,-7.92917
113.30000,-11.33024,-7.94802
113.40001,-11.33997,-7.96357
113.50001,-11.35024,-7.97994
113.60001,-11.36011,-7.99923
113.70001,-11.36997,-8.02388
113.80000,-11.38024,-8.03102
113.90001,-11.39011,-8.05019
114.00001,-11.40024,-8.06623
114.10001,-11.41051,-8.08284
114.20001,-11.42011,-8.11416
114.30000,-11.43024,-8.12095
114.40001,-11.44037,-8.14471
114.50001,-11.45024,-8.16466
114.60001,-11.46037,-8.17386
114.70001,-11.47037,-8.19505
114.80000,-11.48024,-8.21385
114.90001,-11.49011,-8.23010
115.00001,-11.50037,-8.25125
115.10001,-11.51010,-8.26138
115.20001,-11.51997,-8.29056
115.30000,-11.53051,-8.30206
115.40001,-11.54011,-8.32876
115.50001,-11.55024,-8.34283
115.60001,-11.56037,-8.35161
115.70001,-11.56997,-8.37390
115.80000,-11.58037,-8.39271
115.90001,-11.59037,-8.41068
116.00001,-11.60011,-8.43002
116.10001,-11.61010,-8.45081
116.20001,-11.61997,-8.46213
116.30000,-11.63010,-8.48474
116.40001,-11.64011,-8.50187
116.50001,-11.65011,-8.52125
116.60001,-11.66010,-8.54017
116.70001,-11.66997,-8.56181
116.80000,-11.68024,-8.56993
116.90001,-11.69011,-8.59246
117.00001,-11.70024,-8.62099
117.10001,-11.71037,-8.63518
117.20001,-11.71997,-8.65848
117.30000,-11.73037,-8.67233
117.40001,-11.74024,-8.69323
117.50001,-11.74984,-8.70994
117.60001,-11.76024,-8.72516
117.70001,-11.77024,-8.74485
117.80000,-11.78010,-8.78212
117.90001,-11.79024,-8.78515
118.00001,-11.80010,-8.80623
118.10001,-11.81024,-8.82330
118.20001,-11.82050,-8.84744
118.30000,-11.83037,-8.85644
118.40001,-11.84037,-8.87820
118.50001,-11.85037,-8.89131
118.60001,-11.86037,-8.91176
118.70001,-11.87010,-8.92853
118.80000,-11.88037,-8.94901
118.90001,-11.89024,-8.96984
119.00001,-11.89997,-8.98116
119.10001,-11.91037,-8.99153
119.20001,-11.92010,-9.01835
119.30000,-11.92997,-9.04757
119.40001,-11.94037,-9.05776
119.50001,-11.95010,-9.06948
119.60001,-11.96024,-9.09174
119.70001,-11.97037,-9.11146
119.80000,-11.98024,-9.12942
119.90001,-11.99024,-9.15124
120.00001,-12.00024,-9.16857
120.10001,-12.01010,-9.17987
120.20001,-12.01997,-9.20695
120.30000,-12.03024,-9.22056
120.40001,-12.04024,-9.23929
120.50001,-12.04997,-9.25379
120.60001,-12.06050,-9.27462
120.70001,-12.07037,-9.29832
120.80000,-12.08024,-9.31237
120.90001,-12.09064,-9.32654
121.00001,-12.10024,-9.34201
121.10001,-12.11024,-9.36330
121.20001,-12.12050,-9.39323
121.30000,-12.13010,-9.39698
121.40001,-12.14024,-9.42286
121.50001,-12.15037,-9.43875
121.60001,-12.16010,-9.45334
121.70001,-12.17010,-9.47819
121.80000,-12.17997,-9.49497
121.90001,-12.19010,-9.51013
122.00001,-12.19997,-9.53431
122.10001,-12.21024,-9.54390
122.20001,-12.22024,-9.56937
122.30000,-12.22997,-9.58529
122.40001,-12.24050,-9.59972
122.50001,-12.25024,-9.61569
122.60001,-12.26024,-9.63720
122.70001,-12.27037,-9.65425
122.80000,-12.27997,-9.67987
122.90001,-12.29010,-9.69959
123.00001,-12.30024,-9.71666
123.10001,-12.30997,-9.72296
123.20001,-12.32010,-9.75414
123.30000,-12.33024,-9.76746
123.40001,-12.34010,-9.78234
123.50001,-12.35024,-9.79696
123.60001,-12.36037,-9.81919
123.70001,-12.37024,-9.84025
123.80000,-12.38037,-9.85868
123.90001,-12.39050,-9.87527
124.00001,-12.40024,-9.89825
124.10001,-12.41010,-9.90359
124.20001,-12.42024,-9.93374
124.30000,-12.42997,-9.94762
124.40001,-12.44024,-9.97195
124.50001,-12.45024,-9.98590
124.60001,-12.45997,-10.00144
124.70001,-12.47037,-10.02058
124.80000,-12.48037,-10.03892
124.90001,-12.49010,-10.05700
125.00001,-12.50037,-10.07142
125.10001,-12.51024,-10.09304
125.20001,-12.52024,-10.11612
125.30000,-12.53024,-10.12733
125.40001,-12.54024,-10.14938
125.50001,-12.54997,-10.15548
125.60001,-12.56010,-10.17983
125.70001,-12.57037,-10.19523
125.80000,-12.58010,-10.21645
125.90001,-12.59024,-10.23756
126.00001,-12.60024,-10.25371
126.10001,-12.60997,-10.26162
126.20001,-12.62037,-10.28707
126.30000,-12.63024,-10.30909
126.40001,-12.64010,-10.32463
126.50001,-12.65024,-10.33038
126.60001,-12.66010,-10.35404
126.70001,-12.67010,-10.36910
126.80000,-12.68024,-10.38471
126.90001,-12.69010,-10.40852
127.00001,-12.70010,-10.42708
127.10001,-12.71010,-10.43440
127.20001,-12.72010,-10.45526
127.30000,-12.73010,-10.47788
127.40001,-12.74024,-10.50014
127.50001,-12.75037,-10.50732
127.60001,-12.76010,-10.52724
127.70001,-12.77037,-10.54637
127.80000,-12.78024,-10.56828
127.90001,-12.79010,-10.58403
128.00000,-12.80050,-10.60694
128.10001,-12.81024,-10.61402
128.20002,-12.81997,-10.64734
128.30000,-12.83024,-10.64540
128.40001,-12.83997,-10.66918
128.50000,-12.85010,-10.68798
128.60001,-12.86024,-10.70249
128.70002,-12.87024,-10.71730
128.80000,-12.88010,-10.73482
128.90001,-12.89024,-10.75836
129.00000,-12.90024,-10.77122
129.10001,-12.91023,-10.78419
129.20002,-12.92037,-10.80913
129.30000,-12.93010,-10.82518
129.40001,-12.93997,-10.84191
129.50000,-12.95037,-10.85375
129.60001,-12.96023,-10.87982
129.70002,-12.97010,-10.89689
129.80000,-12.98037,-10.91410
129.90001,-12.98997,-10.93162
130.00000,-13.00023,-10.94854
130.10001,-13.01037,-10.96287
130.20002,-13.02010,-10.98110
130.30000,-13.03023,-10.99300
130.40001,-13.04037,-11.01991
130.50000,-13.05023,-11.03074
130.60001,-13.06037,-11.04386
130.70002,-13.07037,-11.06398
130.80000,-13.08023,-11.08338
130.90001,-13.09010,-11.09742
131.00000,-13.10037,-11.11919
131.10000,-13.11010,-11.12479
131.20002,-13.11983,-11.16063
131.30000,-13.13037,-11.16754
131.40002,-13.14010,-11.18284
131.50000,-13.15023,-11.19334
131.60000,-13.16050,-11.21420
131.70002,-13.16997,-11.23247
131.80000,-13.18037,-11.25077
131.90002,-13.19037,-11.27324
132.00000,-13.20023,-11.29425
132.10000,-13.21023,-11.30244
132.20002,-13.22010,-11.32690
132.30000,-13.23023,-11.33423
132.40002,-13.24023,-11.35731
132.50000,-13.25010,-11.36631
132.60000,-13.26010,-11.38093
132.70002,-13.26997,-11.41605
132.80000,-13.28037,-11.42381
132.90002,-13.29010,-11.43751
133.00000,-13.30023,-11.46705
133.10000,-13.31037,-11.47397
133.20002,-13.31997,-11.49217
133.30000,-13.33010,-11.51103
133.40002,-13.34023,-11.52324
133.50000,-13.34983,-11.54376
133.60000,-13.36023,-11.55575
133.70002,-13.37037,-11.57399
133.80000,-13.38010,-11.59120
133.90002,-13.39023,-11.61286
134.00000,-13.40010,-11.62933
134.10000,-13.41010,-11.63927
134.20002,-13.42023,-11.66043
134.30000,-13.43023,-11.67269
134.40002,-13.44010,-11.69436
134.50000,-13.45010,-11.70168
134.60000,-13.46037,-11.72682
134.70002,-13.47023,-11.74339
134.80000,-13.48023,-11.75750
134.90002,-13.49023,-11.78067
135.00000,-13.49983,-11.79348
135.10000,-13.51037,-11.80163
135.20002,-13.52010,-11.83420
135.30000,-13.53010,-11.84712
135.40002,-13.54037,-11.86472
135.50000,-13.55010,-11.87154
135.60000,-13.56023,-11.89262
135.70002,-13.57037,-11.90977
135.80000,-13.58037,-11.93034
135.90002,-13.59023,-11.94697
136.00000,-13.60023,-11.96331
136.10000,-13.61037,-11.97220
136.20002,-13.62010,-11.98969
136.30000,-13.63037,-12.00553
136.40002,-13.64023,-12.02317
136.50000,-13.64997,-12.03584
136.60000,-13.66037,-12.05826
136.70002,-13.67023,-12.07512
136.80000,-13.68010,-12.09705
136.90002,-13.69037,-12.11114
137.00000,-13.70023,-12.12607
137.10000,-13.71010,-12.12963
137.20002,-13.72037,-12.15345
137.30000,-13.73010,-12.17455
137.40002,-13.74023,-12.19113
137.50000,-13.75023,-12.20377
137.60000,-13.76010,-12.21752
137.70002,-13.77010,-12.23985
137.80000,-13.77997,-12.26669
137.90002,-13.79023,-12.27646
138.00000,-13.79997,-12.30086
138.10000,-13.81023,-12.30075
138.20002,-13.82023,-12.32499
138.30000,-13.83010,-12.33537
138.40002,-13.84050,-12.36306
138.50000,-13.85023,-12.37871
138.60000,-13.86023,-12.39395
138.70002,-13.87037,-12.41004
138.80000,-13.87997,-12.42582
138.90002,-13.89023,-12.44407
139.00000,-13.90037,-12.45850
139.10000,-13.90997,-12.46668
139.20002,-13.91997,-12.49553
139.30000,-13.93010,-12.50840
139.40002,-13.94010,-12.53103
139.50000,-13.95023,-12.55264
139.60000,-13.96023,-12.56202
139.70002,-13.97037,-12.58270
139.80000,-13.98037,-12.59696
139.90002,-13.99050,-12.61219
140.00000,-14.00023,-12.63093
140.10000,-14.00997,-12.64179
140.20002,-14.02037,-12.66716
140.30000,-14.03010,-12.68234
140.40002,-14.04023,-12.70162
140.50000,-14.05037,-12.71818
140.60000,-14.05997,-12.72750
140.70002,-14.07037,-12.74954
140.80000,-14.08050,-12.76831
140.90002,-14.09023,-12.78309
141.00000,-14.10037,-12.80586
141.10000,-14.11023,-12.81790
141.20002,-14.12037,-12.83848
141.30000,-14.13037,-12.85507
141.40002,-14.14037,-12.86932
141.50000,-14.15010,-12.88865
141.60000,-14.15997,-12.89530
141.70002,-14.17037,-12.92018
141.80000,-14.17997,-12.93721
141.90002,-14.19023,-12.96446
142.00000,-14.20023,-12.98183
142.10000,-14.20997,-12.98606
142.20002,-14.22037,-13.00832
142.30000,-14.23036,-13.02403
142.40002,-14.24010,-13.04960
142.50000,-14.25023,-13.05431
142.60000,-14.26023,-13.07536
142.70002,-14.27010,-13.09377
142.80000,-14.28023,-13.11257
142.90002,-14.29010,-13.13196
143.00000,-14.30010,-13.14965
143.10000,-14.30997,-13.15500
143.20002,-14.31996,-13.18623
143.30000,-14.33010,-13.19873
143.40002,-14.34010,-13.21677
143.50000,-14.35036,-13.23070
143.60000,-14.36010,-13.24486
143.70002,-14.37037,-13.26156
143.80000,-14.38036,-13.28439
143.90002,-14.38996,-13.30246
144.00000,-14.40050,-13.31618
144.10000,-14.41010,-13.33456
144.20002,-14.42010,-13.36499
144.30000,-14.43036,-13.36397
144.40002,-14.43996,-13.38473
144.50000,-14.45010,-13.40102
144.60000,-14.46036,-13.40790
144.70002,-14.47023,-13.43411
144.80000,-14.48023,-13.45294
144.90002,-14.49037,-13.46872
145.00000,-14.50036,-13.49012
145.10000,-14.51023,-13.50016
145.20002,-14.52050,-13.52254
145.30000,-14.53023,-13.53820
145.40002,-14.53996,-13.56088
145.50000,-14.55036,-13.57656
145.60000,-14.56023,-13.59170
145.70002,-14.57010,-13.61356
145.80000,-14.58023,-13.62789
145.90002,-14.58996,-13.64962
146.00000,-14.60010,-13.66731
146.10000,-14.61036,-13.67231
146.20002,-14.62010,-13.69865
146.30000,-14.63023,-13.70958
146.40002,-14.64036,-13.73498
146.50000,-14.65023,-13.74456
146.60000,-14.66023,-13.76958
146.70002,-14.67010,-13.78392
146.80000,-14.68010,-13.80027
146.90002,-14.68996,-13.82092
147.00000,-14.70036,-13.83832
147.10000,-14.71023,-13.85184
147.20002,-14.71983,-13.87624
147.30000,-14.73036,-13.88859
147.40002,-14.74010,-13.90513
147.50000,-14.75023,-13.92153
147.60000,-14.76036,-13.93720
147.70002,-14.76996,-13.95235
147.80000,-14.78036,-13.96911
147.90002,-14.79036,-13.98965
148.00000,-14.80036,-14.00255
148.10000,-14.81010,-14.01960
148.20002,-14.81996,-14.03884
148.30000,-14.83010,-14.04991
148.40002,-14.84010,-14.07267
148.50000,-14.85010,-14.09250
148.60000,-14.86010,-14.10797
148.70002,-14.86996,-14.12613
148.80000,-14.88036,-14.13803
148.90002,-14.89023,-14.15837
149.00000,-14.90023,-14.17931
149.10000,-14.91036,-14.19118
149.20002,-14.92010,-14.21530
149.30000,-14.93023,-14.22494
149.40002,-14.94036,-14.24732
149.50000,-14.95010,-14.26262
149.60000,-14.96023,-14.27672
149.70002,-14.97023,-14.30632
149.80000,-14.98010,-14.32507
149.90002,-14.99010,-14.33767
150.00000,-15.00023,-14.35059
150.10000,-15.01036,-14.36870
150.20002,-15.02050,-14.38951
150.30000,-15.03036,-14.40378
150.40002,-15.04023,-14.42157
150.50000,-15.05023,-14.43543
150.60000,-15.06050,-14.45993
150.70002,-15.07010,-14.47179
150.80000,-15.08023,-14.49522
150.90002,-15.09036,-14.50974
151.00000,-15.09996,-14.52703
151.10000,-15.11036,-14.53739
151.20002,-15.12023,-14.56287
151.30000,-15.13010,-14.58450
151.40002,-15.14023,-14.59823
151.50000,-15.15010,-14.61290
151.60000,-15.16023,-14.63047
151.70002,-15.17036,-14.64485
151.80000,-15.18050,-14.66681
151.90002,-15.19036,-14.68372
152.00000,-15.20023,-14.70571
152.10000,-15.21036,-14.71033
152.20002,-15.22010,-14.73429
152.30000,-15.23036,-14.75936
152.40002,-15.24010,-14.77261
152.50000,-15.24983,-14.79070
152.60000,-15.26036,-14.80396
152.70002,-15.27023,-14.82309
152.80000,-15.28010,-14.84198
152.90002,-15.29050,-14.85512
153.00000,-15.30010,-14.87448
153.10000,-15.31023,-14.88048
153.20002,-15.32036,-14.90923
153.30000,-15.32996,-14.92486
153.40002,-15.34023,-14.93720
153.50000,-15.35010,-14.94617
153.60000,-15.36010,-14.95716
153.70002,-15.37010,-14.97052
153.80000,-15.38010,-14.99152
153.90002,-15.39010,-15.01004
154.00000,-15.40010,-15.01350
154.10000,-15.41036,-15.02367
154.20002,-15.42023,-15.04020
154.30000,-15.43010,-15.05262
154.40002,-15.44050,-15.06963
154.50000,-15.45023,-15.07643
154.60000,-15.46023,-15.09222
154.70002,-15.47036,-15.10346
154.80000,-15.47983,-15.12584
154.90002,-15.49010,-15.14380
155.00000,-15.50036,-15.15968
155.10000,-15.51010,-15.16984
155.20002,-15.52010,-15.19409
155.30000,-15.53010,-15.20717
155.40002,-15.54023,-15.22918
155.50000,-15.55023,-15.24452
155.60000,-15.56036,-15.26279
155.70002,-15.57036,-15.28076
155.80000,-15.58036,-15.30400
155.90002,-15.59036,-15.31825
156.00000,-15.60023,-15.34300
156.10000,-15.61010,-15.34920
156.20002,-15.62036,-15.37888
156.30000,-15.63010,-15.39456
156.40002,-15.64023,-15.41837
156.50000,-15.65023,-15.43631
156.60000,-15.65996,-15.45117
156.70002,-15.67036,-15.46607
156.80000,-15.68023,-15.49087
156.90002,-15.69023,-15.50292
157.00000,-15.70049,-15.52365
157.10000,-15.71023,-15.53563
157.20002,-15.72023,-15.56488
157.30000,-15.73023,-15.57971
157.40002,-15.74023,-15.59514
157.50000,-15.75010,-15.61911
157.60000,-15.75996,-15.62751
157.70002,-15.77036,-15.65265
157.80000,-15.78010,-15.67137
157.90002,-15.79023,-15.69307
158.00000,-15.80023,-15.71166
158.10000,-15.80996,-15.71980
158.20002,-15.82036,-15.74486
158.30000,-15.83023,-15.76557
158.40002,-15.84009,-15.78339
158.50000,-15.85023,-15.79972
158.60000,-15.86023,-15.81521
158.70002,-15.87023,-15.83572
158.80000,-15.88023,-15.85391
158.90002,-15.89010,-15.87306
159.00000,-15.90009,-15.88879
159.10000,-15.91009,-15.90323
159.20002,-15.92010,-15.93732
159.30000,-15.93010,-15.94844
159.40002,-15.93996,-15.97330
159.50000,-15.95036,-15.98498
159.60000,-15.96010,-16.00206
159.70002,-15.97036,-16.02005
159.80000,-15.98036,-16.04345
159.90002,-15.98996,-16.06239
160.00000,-16.00036,-16.07831
160.10000,-16.01009,-16.09315
160.20002,-16.01996,-16.12567
160.30000,-16.03036,-16.13467
160.40002,-16.04009,-16.16183
160.50000,-16.05009,-16.17054
160.60000,-16.06036,-16.18922
160.70002,-16.07023,-16.21379
160.80000,-16.08009,-16.22916
160.90002,-16.09023,-16.24688
161.00002,-16.10023,-16.27277
161.10000,-16.11036,-16.28644
161.20002,-16.12050,-16.31326
161.30000,-16.13023,-16.32752
161.40002,-16.13996,-16.34420
161.50002,-16.15023,-16.36173
161.60000,-16.16010,-16.38450
161.70002,-16.17009,-16.41153
161.80000,-16.18036,-16.41952
161.90002,-16.18996,-16.43558
162.00002,-16.20023,-16.46176
162.10000,-16.21049,-16.47360
162.20002,-16.22023,-16.50254
162.30000,-16.23009,-16.51790
162.40002,-16.24023,-16.53546
162.50002,-16.25023,-16.55442
162.60000,-16.26036,-16.56860
162.70002,-16.27036,-16.58988
162.80000,-16.28023,-16.60942
162.90002,-16.29009,-16.62822
163.00002,-16.30023,-16.64977
163.10000,-16.31009,-16.66195
163.20002,-16.31996,-16.69533
163.30000,-16.33036,-16.70677
163.40002,-16.34009,-16.72431
163.50002,-16.35036,-16.74033
163.60000,-16.36023,-16.75956
163.70002,-16.36996,-16.77419
163.80000,-16.38036,-16.80157
163.90002,-16.39036,-16.81666
164.00002,-16.40009,-16.84554
164.10000,-16.41009,-16.85469
164.20002,-16.41996,-16.87072
164.30000,-16.43009,-16.88777
164.40002,-16.44009,-16.90705
164.50002,-16.45009,-16.92838
164.60000,-16.46009,-16.94271
164.70002,-16.46996,-16.97098
164.80000,-16.48036,-16.98700
164.90002,-16.49009,-17.00673
165.00002,-16.50023,-17.03002
165.10000,-16.51036,-17.03122
165.20002,-16.51996,-17.06273
165.30000,-16.53023,-17.08495
165.40002,-16.54023,-17.10460
165.50002,-16.54996,-17.12804
165.60000,-16.56036,-17.14092
165.70002,-16.57023,-17.16434
165.80000,-16.57996,-17.18500
165.90002,-16.59023,-17.20036
166.00002,-16.60009,-17.22364
166.10000,-16.61009,-17.23670
166.20002,-16.62036,-17.26469
166.30000,-16.63036,-17.28931
166.40002,-16.64023,-17.29863
166.50002,-16.65036,-17.31574
166.60000,-16.66023,-17.33993
166.70002,-16.67009,-17.36317
166.80000,-16.68036,-17.37809
166.90002,-16.69023,-17.38969
167.00002,-16.69996,-17.42282
167.10000,-16.71036,-17.43404
167.20002,-16.72009,-17.45746
167.30000,-16.73009,-17.48565
167.40002,-16.74036,-17.49238
167.50002,-16.75009,-17.51660
167.60000,-16.76023,-17.53154
167.70002,-16.77049,-17.55583
167.80000,-16.78023,-17.57774
167.90002,-16.79023,-17.60191
168.00002,-16.80023,-17.62035
168.10000,-16.81023,-17.63998
168.20002,-16.82009,-17.66047
168.30000,-16.83036,-17.68228
168.40002,-16.84009,-17.69683
168.50002,-16.84996,-17.72430
168.60000,-16.86036,-17.73641
168.70002,-16.87009,-17.75754
168.80000,-16.87996,-17.78250
168.90002,-16.89049,-17.79909
169.00002,-16.90023,-17.81870
169.10000,-16.91009,-17.82559
169.20002,-16.92049,-17.85380
169.30000,-16.93009,-17.86366
169.40002,-16.94022,-17.88414
169.50002,-16.95023,-17.89622
169.60000,-16.96009,-17.91691
169.70002,-16.97009,-17.93890
169.80000,-16.97996,-17.95438
169.90002,-16.99009,-17.97901
170.00002,-17.00009,-17.99735
170.10000,-17.01036,-18.00280
170.20002,-17.02023,-18.02131
170.30000,-17.02996,-18.03909
170.40002,-17.04049,-18.06157
170.50002,-17.05023,-18.07739
170.60000,-17.06023,-18.08279
170.70002,-17.07036,-18.10935
170.80000,-17.07996,-18.13393
170.90002,-17.09023,-18.15005
171.00002,-17.10036,-18.18047
171.10000,-17.10996,-18.19330
171.20002,-17.12009,-18.21844
171.30000,-17.13023,-18.24017
171.40002,-17.14022,-18.25955
171.50002,-17.15036,-18.27972
171.60000,-17.16023,-18.29848
171.70002,-17.17022,-18.32111
171.80000,-17.18022,-18.34622
171.90002,-17.19049,-18.36392
172.00002,-17.20022,-18.38386
172.10000,-17.20996,-18.40138
172.20002,-17.22036,-18.42530
172.30000,-17.23009,-18.43888
172.40002,-17.24009,-18.46246
172.50002,-17.25009,-18.48481
172.60000,-17.25996,-18.50381
172.70002,-17.27036,-18.52721
172.80000,-17.28022,-18.54855
172.90002,-17.29009,-18.56762
173.00002,-17.30049,-18.58902
173.10000,-17.31022,-18.61298
173.20002,-17.32023,-18.63386
173.30000,-17.33009,-18.65129
173.40002,-17.34022,-18.68003
173.50002,-17.35009,-18.69563
173.60000,-17.36023,-18.71430
173.70002,-17.37036,-18.74412
173.80000,-17.37996,-18.77023
173.90002,-17.39023,-18.80090
174.00002,-17.40036,-18.81384
174.10000,-17.41009,-18.82992
174.20002,-17.42063,-18.85726
174.30000,-17.43022,-18.87052
174.40002,-17.44009,-18.90024
174.50002,-17.45036,-18.91071
174.60000,-17.46009,-18.92767
174.70002,-17.47022,-18.95007
174.80000,-17.48036,-18.97665
174.90002,-17.48996,-18.99581
175.00002,-17.50022,-19.01783
175.10000,-17.51022,-19.02979
175.20002,-17.51996,-19.06085
175.30000,-17.52996,-19.07931
175.40002,-17.54022,-19.10758
175.50002,-17.55036,-19.11888
175.60000,-17.56022,-19.12654
175.70002,-17.57036,-19.15711
175.80000,-17.58022,-19.18480
175.90002,-17.59009,-19.20688
176.00002,-17.60049,-19.22370
176.10000,-17.61022,-19.23593
176.20002,-17.62009,-19.27167
176.30000,-17.63036,-19.29128
176.40002,-17.63996,-19.31044
176.50002,-17.65009,-19.33308
176.60000,-17.66036,-19.34849
176.70002,-17.67022,-19.37653
176.80000,-17.68022,-19.39417
176.90002,-17.69022,-19.41855
177.00002,-17.70036,-19.44565
177.10000,-17.71022,-19.46077
177.20002,-17.72049,-19.47744
177.30000,-17.73022,-19.50152
177.40002,-17.73996,-19.51846
177.50002,-17.75036,-19.54604
177.60000,-17.76022,-19.55515
177.70002,-17.77009,-19.58571
177.80000,-17.78036,-19.59385
177.90002,-17.78996,-19.61796
178.00002,-17.80022,-19.65268
178.10000,-17.81049,-19.66435
178.20002,-17.82009,-19.69329
178.30000,-17.83022,-19.72065
178.40002,-17.84036,-19.74315
178.50002,-17.85036,-19.75874
178.60000,-17.86036,-19.77555
178.70002,-17.87022,-19.79850
178.80000,-17.88022,-19.82411
178.90002,-17.89009,-19.84470
179.00002,-17.90036,-19.86260
179.10000,-17.91009,-19.87247
179.20002,-17.91996,-19.91802
179.30000,-17.93036,-19.92827
179.40002,-17.94009,-19.95461
179.50002,-17.95022,-19.96913
179.60000,-17.96036,-19.99518
179.70002,-17.96982,-20.01700
179.80000,-17.98036,-20.03150
179.90002,-17.99036,-20.06396
180.00002,-18.00022,-20.10478
180.10000,-18.01009,-20.12225
180.20002,-18.02009,-20.14050
180.30000,-18.03009,-20.15733
180.40002,-18.04009,-20.18076
180.50002,-18.05009,-20.21317
180.60000,-18.06009,-20.21873
180.70002,-18.06996,-20.24147
180.80000,-18.08036,-20.26419
180.90002,-18.09022,-20.28064
181.00002,-18.10022,-20.29902
181.10000,-18.11036,-20.31866
181.20002,-18.11996,-20.34517
181.30000,-18.13022,-20.36369
181.40002,-18.14036,-20.38582
181.50002,-18.14982,-20.41296
181.60000,-18.16022,-20.42649
181.70002,-18.17022,-20.45620
181.80000,-18.17996,-20.48821
181.90002,-18.19022,-20.49930
182.00002,-18.20009,-20.52362
182.10000,-18.21022,-20.53966
182.20002,-18.22049,-20.57146
182.30000,-18.23036,-20.58924
182.40002,-18.24022,-20.61335
182.50002,-18.25022,-20.63954
182.60000,-18.26049,-20.65824
182.70002,-18.27009,-20.68232
182.80000,-18.28036,-20.71854
182.90002,-18.29022,-20.73764
183.00002,-18.29996,-20.76232
183.10000,-18.31036,-20.77737
183.20002,-18.32009,-20.80755
183.30000,-18.33009,-20.83409
183.40002,-18.34035,-20.85411
183.50002,-18.35009,-20.87278
183.60000,-18.36022,-20.89477
183.70002,-18.37035,-20.91352
183.80000,-18.38022,-20.94046
183.90002,-18.39022,-20.96075
184.00002,-18.40022,-20.98967
184.10000,-18.41035,-21.00268
184.20002,-18.42009,-21.03529
184.30000,-18.43022,-21.05014
184.40002,-18.44009,-21.08246
184.50002,-18.44995,-21.10731
184.60000,-18.46036,-21.12942
184.70002,-18.47022,-21.14974
184.80000,-18.48022,-21.18041
184.90002,-18.49049,-21.20030
185.00002,-18.50022,-21.22881
185.10000,-18.51022,-21.23867
185.20002,-18.52049,-21.26797
185.30000,-18.53009,-21.28725
185.40002,-18.54022,-21.32333
185.50002,-18.55022,-21.33791
185.60000,-18.56009,-21.35518
185.70002,-18.57009,-21.38668
185.80000,-18.57995,-21.42880
185.90002,-18.59009,-21.44494
186.00002,-18.59996,-21.46422
186.10000,-18.61022,-21.48578
186.20002,-18.62022,-21.50938
186.30000,-18.62996,-21.53023
186.40002,-18.64035,-21.55669
186.50002,-18.65009,-21.57841
186.60000,-18.66022,-21.59344
186.70002,-18.67035,-21.62648
186.80000,-18.67995,-21.65835
186.90002,-18.69009,-21.66937
187.00002,-18.70022,-21.69696
187.10000,-18.70982,-21.71224
187.20002,-18.71995,-21.75044
187.30000,-18.73022,-21.76715
187.40002,-18.74022,-21.78713
187.50002,-18.75022,-21.80800
187.60000,-18.76036,-21.83445
187.70002,-18.77035,-21.86774
187.80000,-18.78035,-21.89172
187.90002,-18.79049,-21.91152
188.00002,-18.80022,-21.93413
188.10000,-18.81009,-21.94602
188.20002,-18.82035,-21.98913
188.30000,-18.83009,-22.00270
188.40002,-18.84009,-22.02861
188.50002,-18.85022,-22.04887
188.60000,-18.85995,-22.06943
188.70002,-18.87035,-22.10156
188.80000,-18.88035,-22.12518
188.90002,-18.89009,-22.13969
189.00002,-18.90035,-22.16868
189.10000,-18.91009,-22.18888
189.20002,-18.92022,-22.21597
189.30000,-18.93035,-22.24108
189.40002,-18.94022,-22.27104
189.50002,-18.95009,-22.28931
189.60000,-18.95995,-22.29899
189.70002,-18.97035,-22.34181
189.80000,-18.98009,-22.36011
189.90002,-18.99009,-22.38881
190.00002,-18.99995,-22.40640
190.10000,-19.00982,-22.41935
190.20002,-19.02035,-22.45343
190.30000,-19.03022,-22.47675
190.40002,-19.04009,-22.50331
190.50002,-19.05035,-22.52010
190.60000,-19.06022,-22.54531
190.70002,-19.07022,-22.57640
190.80000,-19.08035,-22.59716
190.90002,-19.09022,-22.61833
191.00002,-19.10022,-22.64122
191.10000,-19.11022,-22.66775
191.20002,-19.12009,-22.69380
191.30000,-19.12995,-22.71675
191.40002,-19.14009,-22.74760
191.50002,-19.15035,-22.76807
191.60000,-19.16009,-22.78469
191.70002,-19.17022,-22.82684
191.80000,-19.18035,-22.84040
191.90002,-19.18995,-22.86305
192.00002,-19.20035,-22.88914
192.10000,-19.21022,-22.91019
192.20002,-19.22009,-22.94926
192.30000,-19.23022,-22.96489
192.40002,-19.24009,-22.99675
192.50002,-19.25009,-23.01692
192.60000,-19.26022,-23.03145
192.70002,-19.27009,-23.06637
192.80000,-19.28022,-23.09250
192.90002,-19.29022,-23.11441
193.00002,-19.30035,-23.13857
193.10000,-19.31022,-23.16078
193.20002,-19.32035,-23.19000
193.30000,-19.33022,-23.21716
193.40002,-19.33995,-23.24213
193.50002,-19.35049,-23.26651
193.60000,-19.36022,-23.29385
193.70002,-19.36995,-23.32060
193.80000,-19.38022,-23.34789
193.90002,-19.39009,-23.36848
194.00002,-19.40022,-23.40000
194.10000,-19.41049,-23.41745
194.20002,-19.42022,-23.45018
194.30000,-19.43022,-23.47206
194.40002,-19.44049,-23.49854
194.50002,-19.45035,-23.52660
194.60000,-19.46022,-23.54394
194.70002,-19.47022,-23.56461
194.80000,-19.48022,-23.59909
194.90002,-19.49009,-23.61892
195.00002,-19.50035,-23.64925
195.10000,-19.51009,-23.67115
195.20002,-19.51995,-23.69972
195.30000,-19.53035,-23.72416
195.40002,-19.54009,-23.75111
195.50002,-19.55022,-23.77840
195.60000,-19.56035,-23.80088
195.70002,-19.56995,-23.83008
195.80000,-19.58035,-23.85421
195.90002,-19.59035,-23.87589
196.00002,-19.60022,-23.90221
196.10000,-19.61022,-23.92511
196.20002,-19.62009,-23.95803
196.30000,-19.63009,-23.98336
196.40002,-19.64009,-24.00900
196.50002,-19.65008,-24.04167
196.60000,-19.66009,-24.05351
196.70002,-19.66995,-24.09368
196.80000,-19.68035,-24.11942
196.90002,-19.69009,-24.14425
197.00002,-19.70022,-24.17012
197.10000,-19.71048,-24.18970
197.20002,-19.72008,-24.21808
197.30000,-19.73022,-24.24692
197.40002,-19.74035,-24.27293
197.50002,-19.74995,-24.29774
197.60000,-19.76022,-24.32196
197.70002,-19.77022,-24.35229
197.80000,-19.77995,-24.38199
197.90002,-19.79022,-24.40581
198.00002,-19.80022,-24.43679
198.10000,-19.81022,-24.45917
198.20002,-19.82035,-24.48808
198.30000,-19.83035,-24.51204
198.40002,-19.84022,-24.54194
198.50002,-19.85022,-24.56475
198.60000,-19.86035,-24.59145
198.70002,-19.87009,-24.62080
198.80000,-19.88022,-24.65054
198.90002,-19.89022,-24.67801
199.00002,-19.89982,-24.70545
199.10000,-19.91035,-24.72367
199.20002,-19.92008,-24.75569
199.30000,-19.93009,-24.78747
199.40002,-19.94035,-24.81072
199.50002,-19.95022,-24.83406
199.60000,-19.96022,-24.86509
199.70002,-19.97035,-24.89147
199.80000,-19.98022,-24.92635
199.90002,-19.99008,-24.95177
200.00002,-20.00022,-24.97277
200.10000,-20.01022,-24.99478
200.20002,-20.02008,-25.02585
200.30000,-20.03035,-25.04686
200.40002,-20.04022,-25.08328
200.50002,-20.04995,-25.10122
200.60000,-20.06049,-25.13361
200.70002,-20.07022,-25.16134
200.80000,-20.08022,-25.18282
200.90002,-20.09035,-25.21859
201.00002,-20.10022,-25.24190
201.10000,-20.11022,-25.26522
201.20002,-20.12035,-25.29304
201.30000,-20.12995,-25.30434
201.40002,-20.14022,-25.33445
201.50002,-20.15035,-25.35299
201.60000,-20.16008,-25.38173
201.70002,-20.16995,-25.40058
201.80000,-20.17995,-25.42351
201.90002,-20.19008,-25.44772
202.00002,-20.19995,-25.47355
202.10000,-20.21035,-25.49420
202.20002,-20.22022,-25.52004
202.30000,-20.22995,-25.54145
202.40002,-20.24048,-25.57680
202.50002,-20.25022,-25.59317
202.60000,-20.26022,-25.61489
202.70002,-20.27035,-25.64805
202.80000,-20.27982,-25.66661
202.90002,-20.29008,-25.68400
203.00002,-20.30035,-25.71870
203.10000,-20.31008,-25.73655
203.20002,-20.32008,-25.76661
203.30000,-20.33022,-25.79317
203.40002,-20.34022,-25.82058
203.50002,-20.35022,-25.84458
203.60000,-20.36035,-25.87867
203.70002,-20.37022,-25.89686
203.80000,-20.38022,-25.91999
203.90002,-20.39035,-25.94981
204.00002,-20.40022,-25.97186
204.10000,-20.41008,-25.99203
204.20002,-20.42035,-26.02613
204.30000,-20.43008,-26.04989
204.40002,-20.44008,-26.07887
204.50002,-20.45022,-26.10486
204.60000,-20.45995,-26.12889
204.70002,-20.47035,-26.15657
204.80000,-20.48035,-26.19117
204.90002,-20.49022,-26.21009
205.00002,-20.50022,-26.23418
205.10000,-20.51022,-26.26470
205.20002,-20.52022,-26.29340
205.30000,-20.53022,-26.31674
205.40002,-20.54035,-26.35402
205.50002,-20.55022,-26.37139
205.60000,-20.56008,-26.40616
205.70002,-20.57035,-26.43738
205.80000,-20.58008,-26.46439
205.90002,-20.59022,-26.48488
206.00002,-20.60035,-26.51768
206.10000,-20.61008,-26.54090
206.20002,-20.62035,-26.56846
206.30000,-20.63022,-26.59872
206.40002,-20.64008,-26.63277
206.50002,-20.65022,-26.65359
206.60000,-20.66022,-26.68677
206.70002,-20.67022,-26.71023
206.80000,-20.68035,-26.74026
206.90002,-20.69008,-26.76168
207.00002,-20.70022,-26.79468
207.10000,-20.71008,-26.81221
207.20002,-20.72008,-26.84564
207.30000,-20.73008,-26.87375
207.40002,-20.74008,-26.90746
207.50002,-20.75035,-26.93272
207.60000,-20.76022,-26.96132
207.70002,-20.77035,-26.98916
207.80000,-20.78035,-27.01722
207.90002,-20.79008,-27.03953
208.00002,-20.80035,-27.07759
208.10000,-20.81022,-27.10111
208.20002,-20.82008,-27.12793
208.30000,-20.83022,-27.15536
208.40002,-20.83982,-27.18775
208.50002,-20.85008,-27.21080
208.60000,-20.86035,-27.24561
208.70002,-20.87035,-27.27497
208.80000,-20.88035,-27.31029
208.90002,-20.89022,-27.33668
209.00002,-20.90022,-27.36882
209.10000,-20.91035,-27.39542
209.20002,-20.92035,-27.43144
209.30000,-20.93022,-27.45599
209.40002,-20.93995,-27.47712
209.50002,-20.95035,-27.51178
209.60000,-20.96022,-27.54676
209.70002,-20.97008,-27.56715
209.80000,-20.98022,-27.60081
209.90002,-20.98995,-27.63267
210.00002,-21.00022,-27.65886
210.10000,-21.01048,-27.68628
210.20002,-21.02008,-27.71597
210.30000,-21.03035,-27.74443
210.40002,-21.04035,-27.78119
210.50002,-21.05021,-27.80212
210.60000,-21.06035,-27.84560
210.70002,-21.07022,-27.86138
210.80000,-21.08008,-27.89819
210.90002,-21.09008,-27.92563
211.00002,-21.10048,-27.95932
211.10000,-21.11008,-27.98852
211.20002,-21.11995,-28.02017
211.30000,-21.13035,-28.05424
211.40002,-21.14008,-28.07994
211.50002,-21.15021,-28.10567
211.60000,-21.16048,-28.13756
211.70002,-21.16995,-28.16376
211.80000,-21.18035,-28.19746
211.90002,-21.19035,-28.22630
212.00002,-21.20022,-28.25526
212.10000,-21.21022,-28.29379
212.20002,-21.22008,-28.32201
212.30000,-21.23008,-28.34932
212.40002,-21.24008,-28.38917
212.50002,-21.25021,-28.41022
212.60000,-21.26008,-28.44126
212.70002,-21.27008,-28.47198
212.80000,-21.28021,-28.51160
212.90002,-21.29008,-28.53633
213.00002,-21.30008,-28.57135
213.10000,-21.31035,-28.59793
213.20002,-21.31995,-28.63351
213.30000,-21.33022,-28.66132
213.40002,-21.34048,-28.68995
213.50002,-21.34995,-28.72084
213.60000,-21.36021,-28.75771
213.70002,-21.37022,-28.79155
213.80000,-21.37995,-28.81781
213.90002,-21.39021,-28.85037
214.00002,-21.40022,-28.87975
214.10000,-21.41021,-28.91285
214.20002,-21.42048,-28.94925
214.30000,-21.43048,-28.98898
214.40002,-21.44022,-29.01795
214.50002,-21.45035,-29.04402
214.60000,-21.46048,-29.08163
214.70002,-21.47022,-29.10444
214.80000,-21.48035,-29.13831
214.90002,-21.49021,-29.17519
215.00002,-21.49995,-29.20090
215.10000,-21.51035,-29.23384
215.20002,-21.52008,-29.26574
215.30000,-21.53008,-29.29354
215.40002,-21.54035,-29.33675
215.50002,-21.55021,-29.37025
215.60000,-21.56021,-29.39795
215.70002,-21.57035,-29.42774
215.80000,-21.58021,-29.46114
215.90002,-21.59021,-29.48980
216.00002,-21.60021,-29.53006
216.10000,-21.61021,-29.55426
216.20002,-21.62008,-29.58889
216.30000,-21.63021,-29.61652
216.40002,-21.64008,-29.65289
216.50002,-21.64995,-29.68123
216.60000,-21.66035,-29.71987
216.70002,-21.67008,-29.75078
216.80000,-21.67995,-29.77937
216.90002,-21.69048,-29.81270
217.00002,-21.70021,-29.84704
217.10000,-21.71021,-29.87650
217.20002,-21.72035,-29.91613
217.30000,-21.73008,-29.94804
217.40002,-21.74021,-29.98227
217.50002,-21.75021,-30.01723
217.60000,-21.76008,-30.04072
217.70002,-21.77008,-30.06948
217.80000,-21.78008,-30.10887
217.90002,-21.79008,-30.14305
218.00002,-21.79995,-30.18054
218.10000,-21.81021,-30.20820
218.20002,-21.82021,-30.24948
218.30000,-21.83008,-30.27392
218.40002,-21.84048,-30.31827
218.50002,-21.85021,-30.34609
218.60000,-21.86021,-30.37762
218.70002,-21.87035,-30.41858
218.80000,-21.87995,-30.45032
218.90002,-21.89021,-30.47380
219.00002,-21.90021,-30.51148
219.10000,-21.90995,-30.54424
219.20002,-21.92008,-30.58278
219.30000,-21.93021,-30.61614
219.40002,-21.94021,-30.65388
219.50002,-21.95035,-30.68607
219.60000,-21.96021,-30.71961
219.70002,-21.97008,-30.75331
219.80000,-21.98021,-30.79191
219.90002,-21.99035,-30.82927
220.00002,-22.00021,-30.85954
220.10000,-22.01021,-30.89044
220.20002,-22.02035,-30.94243
220.30000,-22.03008,-30.96772
220.40002,-22.04021,-31.00128
220.50002,-22.05008,-31.03300
220.60000,-22.05981,-31.06757
220.70002,-22.07035,-31.10785
220.80000,-22.08035,-31.14574
220.90002,-22.09021,-31.17239
221.00002,-22.10035,-31.21467
221.10000,-22.11008,-31.25298
221.20002,-22.12021,-31.28171
221.30000,-22.13035,-31.32095
221.40002,-22.14035,-31.36029
221.50002,-22.15021,-31.38610
221.60000,-22.16008,-31.41975
221.70002,-22.17035,-31.45888
221.80000,-22.17995,-31.49886
221.90002,-22.19035,-31.52810
222.00002,-22.20021,-31.56688
222.10000,-22.20995,-31.59932
222.20002,-22.22048,-31.64009
222.30000,-22.23021,-31.67317
222.40002,-22.24008,-31.71127
222.50002,-22.25034,-31.75332
222.60000,-22.26021,-31.78375
222.70002,-22.27008,-31.81145
222.80000,-22.28021,-31.85352
222.90002,-22.29008,-31.88195
223.00002,-22.30008,-31.91882
223.10000,-22.31008,-31.95529
223.20002,-22.32008,-31.98674
223.30000,-22.33008,-32.02593
223.40002,-22.34008,-32.06794
223.50002,-22.35021,-32.10256
223.60000,-22.36008,-32.14183
223.70002,-22.37035,-32.17142
223.80000,-22.38035,-32.21915
223.90002,-22.38981,-32.24430
224.00002,-22.40048,-32.28774
224.10000,-22.41008,-32.32696
224.20002,-22.42008,-32.36607
224.30000,-22.43035,-32.40115
224.40002,-22.43995,-32.43859
224.50002,-22.45008,-32.47291
224.60000,-22.46021,-32.51845
224.70002,-22.47021,-32.54655
224.80000,-22.48021,-32.58919
224.90002,-22.49021,-32.62550
225.00002,-22.50021,-32.66412
225.10000,-22.51035,-32.70966
225.20002,-22.52048,-32.74154
225.30002,-22.53021,-32.77305
225.40002,-22.54008,-32.81103
225.50002,-22.55034,-32.85509
225.60000,-22.56021,-32.89308
225.70002,-22.57008,-32.91788
225.80002,-22.58021,-32.96783
225.90002,-22.58994,-32.99912
226.00002,-22.60021,-33.04117
226.10000,-22.61048,-33.08073
226.20002,-22.62008,-33.11368
226.30002,-22.63008,-33.15282
226.40002,-22.64021,-33.19558
226.50002,-22.65021,-33.22982
226.60000,-22.66034,-33.27705
226.70002,-22.67035,-33.30735
226.80002,-22.68021,-33.35283
226.90002,-22.69008,-33.38181
227.00002,-22.70035,-33.42180
227.10000,-22.71008,-33.45891
227.20002,-22.71994,-33.49865
227.30002,-22.73034,-33.54049
227.40002,-22.74008,-33.58579
227.50002,-22.75034,-33.61269
227.60000,-22.76034,-33.65720
227.70002,-22.76994,-33.57330
227.80002,-22.78034,-33.62269
227.90002,-22.79034,-33.65807
228.00002,-22.80021,-33.68755
228.10000,-22.81008,-33.73314
228.20002,-22.81994,-33.76910
228.30002,-22.83008,-33.80772
228.40002,-22.84008,-33.84912
228.50002,-22.85008,-33.88900
228.60000,-22.86008,-33.92124
228.70002,-22.86994,-33.95338
228.80002,-22.88034,-34.00449
228.90002,-22.89008,-34.03915
229.00002,-22.90021,-34.08358
229.10000,-22.91034,-34.12325
229.20002,-22.92008,-34.16039
229.30002,-22.93034,-34.20316
229.40002,-22.94034,-34.23521
229.50002,-22.94994,-34.27836
229.60000,-22.96034,-34.32072
229.70002,-22.97021,-34.36364
229.80002,-22.97994,-34.40411
229.90002,-22.99021,-34.44317
230.00002,-23.00008,-34.48372
230.10000,-23.01021,-34.52182
230.20002,-23.02034,-34.56331
230.30002,-23.03034,-34.60568
230.40002,-23.04034,-34.64668
230.50002,-23.05034,-34.68333
230.60000,-23.06034,-34.72671
230.70002,-23.07021,-34.76039
230.80002,-23.08034,-34.81007
230.90002,-23.09021,-34.84718
231.00002,-23.09994,-34.88567
231.10000,-23.11034,-34.93119
231.20002,-23.12008,-34.96255
231.30002,-23.13008,-35.00306
231.40002,-23.14034,-35.05509
231.50002,-23.15008,-35.08143
231.60000,-23.16021,-35.12442
231.70002,-23.17048,-35.16286
231.80002,-23.18034,-35.20749
231.90002,-23.19021,-35.24655
232.00002,-23.20034,-35.28650
232.10000,-23.21021,-35.32559
232.20002,-23.22008,-35.36335
232.30002,-23.23034,-35.40295
232.40002,-23.24021,-35.45419
232.50002,-23.24994,-35.48724
232.60000,-23.26048,-35.53474
232.70002,-23.27021,-35.57209
232.80002,-23.28008,-35.60186
232.90002,-23.29034,-35.65356
233.00002,-23.30008,-35.69315
233.10000,-23.31008,-35.72886
233.20002,-23.32048,-35.77814
233.30002,-23.33008,-35.80585
233.40002,-23.34034,-35.85620
233.50002,-23.35034,-35.89238
233.60000,-23.36008,-35.92608
233.70002,-23.37008,-35.96501
233.80002,-23.38008,-36.00409
233.90002,-23.39008,-36.04448
234.00002,-23.40008,-36.08812
234.10000,-23.41034,-36.13009
234.20002,-23.42021,-36.16942
234.30002,-23.42994,-36.20318
234.40002,-23.44048,-36.26007
234.50002,-23.45021,-36.29722
234.60000,-23.46021,-36.33117
234.70002,-23.47034,-36.38058
234.80002,-23.47994,-36.42270
234.90002,-23.49021,-36.46043
235.00002,-23.50034,-36.51537
235.10000,-23.50994,-36.53694
235.20002,-23.52008,-36.59260
235.30002,-23.53021,-36.63836
235.40002,-23.54021,-36.68378
235.50002,-23.55034,-36.72259
235.60000,-23.56034,-36.77083
235.70002,-23.57021,-36.80911
235.80002,-23.58021,-36.85196
235.90002,-23.59034,-36.89522
236.00002,-23.60021,-36.93956
236.10000,-23.61021,-36.97611
236.20002,-23.62048,-37.02832
236.30002,-23.63008,-37.06369
236.40002,-23.64021,-37.10900
236.50002,-23.65021,-37.15513
236.60000,-23.65994,-37.19408
236.70002,-23.67034,-37.24127
236.80002,-23.68034,-37.29264
236.90002,-23.69008,-37.33010
237.00002,-23.70034,-37.37425
237.10000,-23.71021,-37.42017
237.20002,-23.72034,-37.46644
237.30002,-23.73034,-37.51130
237.40002,-23.74034,-37.55568
237.50002,-23.75008,-37.59745
237.60000,-23.76007,-37.63833
237.70002,-23.77034,-37.68612
237.80002,-23.77994,-37.72785
237.90002,-23.79021,-37.76954
238.00002,-23.80021,-37.81943
238.10000,-23.80981,-37.85990
238.20002,-23.82034,-37.91008
238.30002,-23.83034,-37.95334
238.40002,-23.84008,-37.99161
238.50002,-23.85034,-38.03800
238.60000,-23.86021,-38.07689
238.70002,-23.87021,-38.12005
238.80002,-23.88034,-38.16929
238.90002,-23.89007,-38.20485
239.00002,-23.90007,-38.25111
239.10000,-23.91008,-38.30045
239.20002,-23.92008,-38.34119
239.30002,-23.93007,-38.37595
239.40002,-23.94008,-38.42657
239.50002,-23.95034,-38.47352
239.60000,-23.96007,-38.51525
239.70002,-23.97021,-38.55810
239.80002,-23.98021,-38.60564
239.90002,-23.99007,-38.64681
240.00002,-24.00061,-38.70004
240.10000,-24.01021,-38.74218
240.20002,-24.02007,-38.78742
240.30002,-24.03034,-38.83319
240.40002,-24.03994,-38.87548
240.50002,-24.05008,-38.91815
240.60000,-24.06021,-38.97001
240.70002,-24.07021,-39.00733
240.80002,-24.08021,-39.06023
240.90002,-24.09021,-39.10832
241.00002,-24.10021,-39.15685
241.10000,-24.11034,-39.20290
241.20002,-24.12047,-39.25289
241.30002,-24.13021,-39.29469
241.40002,-24.13994,-39.33606
241.50002,-24.15034,-39.39423
241.60000,-24.16007,-39.44064
241.70002,-24.17007,-39.48010
241.80002,-24.18034,-39.53082
241.90002,-24.18994,-39.57075
242.00002,-24.20007,-39.62637
242.10000,-24.21047,-39.67303
242.20002,-24.22021,-39.72365
242.30002,-24.23021,-39.76989
242.40002,-24.24034,-39.82433
242.50002,-24.25034,-39.87186
242.60000,-24.26034,-39.92109
242.70002,-24.27021,-39.95800
242.80002,-24.28021,-40.01820
242.90002,-24.29007,-40.05771
243.00002,-24.30034,-40.11171
243.10000,-24.31007,-40.16100
243.20002,-24.31994,-40.20260
243.30002,-24.33034,-40.26047
243.40002,-24.34007,-40.29978
243.50002,-24.35034,-40.34977
243.60000,-24.36034,-40.40025
243.70002,-24.36981,-40.44457
243.80002,-24.38034,-40.50594
243.90002,-24.39034,-40.55481
244.00002,-24.40021,-40.59724
244.10000,-24.41021,-40.65166
244.20002,-24.42007,-40.69356
244.30002,-24.43007,-40.74095
244.40002,-24.43994,-40.79368
244.50002,-24.45007,-40.84316
244.60000,-24.46007,-40.90916
244.70002,-24.46994,-40.94572
244.80002,-24.48034,-40.99958
244.90002,-24.49007,-41.04290
245.00002,-24.50021,-41.09256
245.10000,-24.51047,-41.15478
245.20002,-24.52007,-41.19755
245.30002,-24.53034,-41.24356
245.40002,-24.54034,-41.30056
245.50002,-24.54994,-41.34519
245.60000,-24.56021,-41.40546
245.70002,-24.57021,-41.45067
245.80002,-24.57994,-41.49344
245.90002,-24.59034,-41.55184
246.00002,-24.60007,-41.60528
246.10000,-24.61021,-41.65294
246.20002,-24.62034,-41.70506
246.30002,-24.63021,-41.75558
246.40002,-24.64021,-41.82633
246.50002,-24.65021,-41.87605
246.60000,-24.66034,-41.93054
246.70002,-24.67021,-41.97197
246.80002,-24.68021,-42.02897
246.90002,-24.69021,-42.07322
247.00002,-24.69981,-42.12001
247.10000,-24.71034,-42.17790
247.20002,-24.72007,-42.22512
247.30002,-24.73007,-42.27351
247.40002,-24.74034,-42.33586
247.50002,-24.75007,-42.37832
247.60000,-24.76021,-42.43665
247.70002,-24.77034,-42.49548
247.80002,-24.78034,-42.54668
247.90002,-24.79034,-42.59857
248.00002,-24.80034,-42.65322
248.10000,-24.81021,-42.70537
248.20002,-24.82007,-42.75618
248.30002,-24.83034,-42.80266
248.40002,-24.84021,-42.85404
248.50002,-24.84994,-42.90422
248.60000,-24.86034,-42.96378
248.70002,-24.87021,-43.01466
248.80002,-24.88007,-43.01753
248.90002,-24.89034,-43.06867
249.00002,-24.90021,-43.11923
249.10000,-24.91021,-43.17262
249.20002,-24.92047,-43.22779
249.30002,-24.93021,-43.27317
249.40002,-24.94021,-43.33132
249.50002,-24.95021,-43.37930
249.60000,-24.96007,-43.43638
249.70002,-24.97007,-43.48670
249.80002,-24.97994,-43.54252
249.90002,-24.99021,-43.59189
250.00002,-25.00007,-43.64905
250.10000,-25.01034,-43.69874
250.20002,-25.02021,-43.76157
250.30002,-25.02994,-43.81192
250.40002,-25.04047,-43.87273
250.50002,-25.05021,-43.92347
250.60000,-25.06007,-43.96757
250.70002,-25.07034,-44.02849
250.80002,-25.07994,-44.08772
250.90002,-25.09021,-44.13582
251.00002,-25.10034,-44.09301
251.10000,-25.11007,-44.01031
251.20002,-25.11994,-43.99822
251.30002,-25.13020,-43.99842
251.40002,-25.14034,-44.03064
251.50002,-25.15034,-44.06184
251.60000,-25.16047,-44.10554
251.70002,-25.17021,-44.15300
251.80002,-25.18034,-44.20507
251.90002,-25.19060,-44.25940
252.00002,-25.20020,-44.31286
252.10000,-25.21007,-44.35702
252.20002,-25.22034,-44.42640
252.30002,-25.23007,-44.47782
252.40002,-25.24007,-44.53267
252.50002,-25.25034,-44.59541
252.60000,-25.25994,-44.64759
252.70002,-25.27034,-44.71518
252.80002,-25.28034,-44.78512
252.90002,-25.29007,-44.82891
253.00002,-25.30034,-44.89537
253.10000,-25.31007,-44.95028
253.20002,-25.32034,-45.01945
253.30002,-25.33034,-45.06419
253.40002,-25.34047,-45.12883
253.50002,-25.35021,-45.18273
253.60000,-25.36007,-45.24628
253.70002,-25.37034,-45.30993
253.80002,-25.38007,-45.36267
253.90002,-25.39020,-45.29367
254.00002,-25.40034,-45.07600
254.10000,-25.41007,-44.97533
254.20002,-25.42034,-44.94760
254.30002,-25.43034,-44.95461
254.40002,-25.44007,-44.93877
254.50002,-25.45034,-44.03667
254.60000,-25.46020,-43.96588
254.70002,-25.47020,-43.98459
254.80002,-25.48034,-44.03032
254.90002,-25.49020,-44.08552
255.00002,-25.50034,-44.14812
255.10000,-25.51007,-44.20210
255.20002,-25.52007,-44.27907
255.30002,-25.53007,-44.34114
255.40002,-25.54007,-44.40486
255.50002,-25.55034,-44.48905
255.60000,-25.56007,-44.56279
255.70002,-25.57034,-44.63014
255.80002,-25.58034,-44.70816
255.90002,-25.59007,-44.77347
256.00000,-25.60034,-44.85026
256.10000,-25.61020,-44.91332
256.20002,-25.62007,-44.98773
256.30002,-25.63034,-45.07226
256.40003,-25.63994,-45.14154
256.50000,-25.65020,-45.21213
256.60000,-25.66034,-45.28654
256.70002,-25.67020,-45.36086
256.80002,-25.68020,-45.42478
256.90003,-25.69020,-45.50156
257.00000,-25.70034,-45.57234
257.10000,-25.71034,-45.65189
257.20002,-25.72047,-45.72659
257.30002,-25.73020,-45.79591
257.40003,-25.74007,-45.87245
257.50000,-25.75047,-45.93612
257.60000,-25.76020,-46.01470
257.70002,-25.77007,-46.07971
257.80002,-25.78020,-46.15837
257.90003,-25.78994,-46.23364
258.00000,-25.80020,-46.30578
258.10000,-25.81047,-46.38107
258.20002,-25.82007,-46.45383
258.30002,-25.83020,-46.52890
258.40003,-25.84034,-46.60938
258.50000,-25.85034,-46.67319
258.60000,-25.86047,-46.75050
258.70002,-25.87034,-46.81538
258.80002,-25.88020,-46.88277
258.90003,-25.89007,-46.94448
259.00000,-25.90034,-47.02562
259.10000,-25.91020,-47.10014
259.20002,-25.92007,-47.17230
259.30002,-25.93047,-47.25271
259.40003,-25.94007,-47.31556
259.50000,-25.95020,-47.38517
259.60000,-25.96034,-47.45709
259.70002,-25.96994,-47.52336
259.80002,-25.98034,-47.59574
259.90003,-25.99034,-47.67352
260.00000,-26.00020,-47.73749
260.10000,-26.01020,-47.81065
260.20002,-26.02007,-47.87726
260.30002,-26.03007,-47.94211
260.40003,-26.04007,-48.02429
260.50000,-26.05007,-48.09426
260.60000,-26.06007,-48.16630
260.70002,-26.06994,-48.23696
260.80002,-26.08034,-48.30629
260.90003,-26.09007,-48.37741
261.00000,-26.10020,-48.46075
261.10000,-26.11047,-48.52299
261.20002,-26.12020,-48.59509
261.30002,-26.13020,-48.66365
261.40003,-26.14034,-48.74132
261.50000,-26.14994,-48.80820
261.60000,-26.16020,-48.88290
261.70002,-26.17020,-48.94245
261.80002,-26.18007,-49.02033
261.90003,-26.19020,-49.08643
262.00000,-26.20020,-49.15372
262.10000,-26.21034,-49.23072
262.20000,-26.22034,-49.30303
262.30003,-26.23047,-49.37579
262.40003,-26.24034,-49.44206
262.50000,-26.25020,-49.51056
262.60000,-26.26047,-49.58756
262.70000,-26.27020,-49.65382
262.80003,-26.28034,-49.72868
262.90003,-26.29034,-49.80916
263.00000,-26.29994,-49.86376
263.10000,-26.31020,-49.93426
263.20000,-26.32007,-50.00193
263.30003,-26.33007,-50.06560
263.40003,-26.34034,-48.82139
263.50000,-26.35020,-48.89947
263.60000,-26.36033,-48.94488
263.70000,-26.37034,-49.02242
263.80003,-26.38034,-49.09923
263.90003,-26.39020,-49.17123
264.00000,-26.40034,-49.24101
264.10000,-26.41034,-49.30802
264.20000,-26.42020,-49.39925
264.30003,-26.43033,-49.47778
264.40003,-26.44020,-49.55022
264.50000,-26.44994,-49.62115
264.60000,-26.46033,-49.68978
264.70000,-26.47034,-49.77285
264.80003,-26.48007,-49.84365
264.90003,-26.49034,-49.92262
265.00000,-26.50033,-50.00010
265.10000,-26.51034,-50.07022
265.20000,-26.52034,-50.15693
265.30003,-26.53020,-50.22458
265.40003,-26.54034,-50.30379
265.50000,-26.55034,-50.39093
265.60000,-26.56020,-50.46427
265.70000,-26.57020,-50.53519
265.80003,-26.57994,-50.61411
265.90003,-26.59020,-50.69338
266.00000,-26.60007,-50.76022
266.10000,-26.61020,-50.83234
266.20000,-26.62007,-50.91795
266.30003,-26.62993,-51.00356
266.40003,-26.64047,-51.07953
266.50000,-26.65020,-51.16006
266.60000,-26.66020,-51.24031
266.70000,-26.67033,-51.32223
266.80003,-26.67993,-51.39200
266.90003,-26.69033,-51.47124
267.00000,-26.70047,-51.55713
267.10000,-26.71007,-51.62280
267.20000,-26.72007,-51.70564
267.30003,-26.73033,-51.78443
267.40003,-26.74020,-51.85007
267.50000,-26.75034,-51.93676
267.60000,-26.76033,-52.01478
267.70000,-26.77020,-52.08785
267.80003,-26.78034,-52.17141
267.90003,-26.79047,-52.25424
268.00000,-26.80033,-52.32368
268.10000,-26.81020,-52.39677
268.20000,-26.82033,-52.48736
268.30003,-26.83007,-52.55785
268.40003,-26.84020,-52.64165
268.50000,-26.85020,-52.72018
268.60000,-26.85994,-52.78755
268.70000,-26.87033,-52.87694
268.80003,-26.88034,-52.95319
268.90003,-26.89020,-53.02804
269.00000,-26.90047,-53.11197
269.10000,-26.91007,-53.19258
269.20000,-26.92020,-53.28099
269.30003,-26.93033,-53.35104
269.40003,-26.94047,-53.43462
269.50000,-26.95020,-53.50976
269.60000,-26.96007,-53.59152
269.70000,-26.97020,-53.67213
269.80003,-26.97993,-53.75822
269.90003,-26.99020,-53.83263
270.00000,-27.00033,-53.91412
270.10000,-27.01007,-53.98686
270.20000,-27.02047,-54.07126
270.30003,-27.03033,-54.14236
270.40003,-27.04020,-54.21976
270.50000,-27.05033,-54.29959
270.60000,-27.06020,-54.37892
270.70000,-27.07033,-54.45893
270.80003,-27.08033,-54.53766
270.90003,-27.09007,-54.61225
271.00000,-27.10020,-54.69502
271.10000,-27.11007,-54.77341
271.20000,-27.12007,-54.86064
271.30003,-27.13007,-54.94242
271.40003,-27.14007,-55.02395
271.50000,-27.15047,-55.10573
271.60000,-27.16007,-55.18634
271.70000,-27.17033,-55.26304
271.80003,-27.18033,-55.34219
271.90003,-27.19007,-55.41966
272.00000,-27.20047,-55.51431
272.10000,-27.21020,-55.58971
272.20000,-27.22007,-55.67139
272.30003,-27.23033,-55.75330
272.40003,-27.24007,-55.83288
272.50000,-27.25020,-55.91084
272.60000,-27.26033,-56.00009
272.70000,-27.27020,-56.07157
272.80003,-27.28007,-56.15969
272.90003,-27.29007,-56.23634
273.00000,-27.30033,-56.32189
273.10000,-27.31020,-56.40487
273.20000,-27.32020,-56.47870
273.30003,-27.33007,-56.54886
273.40003,-27.33993,-56.62961
273.50000,-27.35047,-56.68980
273.60000,-27.36020,-56.75656
273.70000,-27.37007,-56.82246
273.80003,-27.38033,-56.88551
273.90003,-27.39007,-56.95159
274.00000,-27.40020,-57.01509
274.10000,-27.41047,-57.07403
274.20000,-27.42007,-57.13977
274.30003,-27.43033,-57.19859
274.40003,-27.44047,-57.27655
274.50000,-27.45020,-57.33541
274.60000,-27.46047,-57.41689
274.70000,-27.47033,-57.48492
274.80003,-27.48020,-57.57149
274.90003,-27.49020,-57.64039
275.00000,-27.50047,-57.72636
275.10000,-27.51007,-57.81668
275.20000,-27.51993,-57.89448
275.30003,-27.53033,-57.98453
275.40003,-27.54007,-58.06735
275.50000,-27.55033,-58.15146
275.60000,-27.56047,-58.24690
275.70000,-27.57007,-58.32044
275.80003,-27.58047,-58.41519
275.90003,-27.59033,-58.50842
276.00000,-27.60020,-58.59848
276.10000,-27.61020,-58.68683
276.20000,-27.62007,-58.77985
276.30003,-27.63007,-58.86045
276.40003,-27.64007,-58.95728
276.50000,-27.65007,-59.03635
276.60000,-27.66007,-59.13506
276.70000,-27.67006,-59.22030
276.80003,-27.68033,-59.30902
276.90003,-27.69007,-59.40543
277.00000,-27.70020,-59.49381
277.10000,-27.71033,-59.59227
277.20000,-27.72007,-59.66387
277.30003,-27.73033,-59.75117
277.40003,-27.74033,-59.84720
277.50000,-27.74993,-59.92600
277.60000,-27.76033,-60.02786
277.70000,-27.77006,-60.11374
277.80003,-27.78007,-60.20976
277.90003,-27.79020,-60.29582
278.00000,-27.80020,-60.39313
278.10000,-27.81033,-60.49490
278.20000,-27.82047,-60.59378
278.30003,-27.83033,-60.68055
278.40003,-27.84020,-60.77126
278.50000,-27.85033,-60.86798
278.60000,-27.86046,-60.96850
278.70000,-27.87020,-61.06006
278.80003,-27.88033,-61.14259
278.90003,-27.89020,-61.24641
279.00000,-27.89993,-61.34506
279.10000,-27.91033,-61.43956
279.20000,-27.92020,-61.53708
279.30003,-27.93007,-61.63073
279.40003,-27.94033,-61.73186
279.50000,-27.95007,-61.81897
279.60000,-27.96033,-61.92216
279.70000,-27.97046,-62.02524
279.80003,-27.98033,-62.10762
279.90003,-27.99033,-62.19893
280.00000,-28.00033,-62.30223
280.10000,-28.01033,-62.40223
280.20000,-28.02020,-62.49606
280.30003,-28.03033,-62.58918
280.40003,-28.04020,-62.69673
280.50000,-28.04993,-62.79074
280.60000,-28.06033,-62.88682
280.70000,-28.07006,-62.97191
280.80003,-28.07993,-63.06349
280.90003,-28.09046,-63.17303
281.00000,-28.10020,-63.26374
281.10000,-28.11033,-63.35713
281.20000,-28.12047,-63.46282
281.30003,-28.12993,-63.55222
281.40003,-28.14033,-63.65784
281.50000,-28.15033,-63.75269
281.60000,-28.16007,-63.70579
281.70000,-28.17006,-63.64644
281.80003,-28.17993,-63.73572
281.90003,-28.19007,-63.83409
282.00000,-28.20006,-63.93909
282.10000,-28.21033,-64.03435
282.20000,-28.22020,-64.14615
282.30003,-28.22993,-64.17517
282.40003,-28.24046,-64.27655
282.50000,-28.25020,-64.37023
282.60000,-28.26020,-64.47298
282.70000,-28.27033,-64.58809
282.80003,-28.27993,-64.68776
282.90003,-28.29020,-64.79915
283.00000,-28.30033,-64.90567
283.10000,-28.31006,-64.99672
283.20000,-28.32006,-65.11142
283.30003,-28.33020,-65.21837
283.40003,-28.34020,-65.32683
283.50000,-28.35033,-65.42760
283.60000,-28.36020,-65.53534
283.70000,-28.37020,-65.63846
283.80003,-28.38020,-65.74643
283.90003,-28.39046,-65.86441
284.00000,-28.40033,-65.96289
284.10000,-28.41020,-66.07746
284.20000,-28.42033,-66.18947
284.30003,-28.43020,-66.29092
284.40003,-28.44020,-66.39840
284.50000,-28.45020,-66.50706
284.60000,-28.45993,-66.60721
284.70000,-28.47033,-66.72706
284.80003,-28.48033,-66.84031
284.90003,-28.49020,-66.94755
285.00000,-28.50046,-67.06072
285.10000,-28.51020,-67.15139
285.20000,-28.52033,-67.25889
285.30003,-28.53033,-67.37523
285.40003,-28.54033,-67.47700
285.50000,-28.55020,-67.58302
285.60000,-28.56020,-67.70271
285.70000,-28.57033,-67.82072
285.80003,-28.58006,-67.92676
285.90003,-28.59020,-68.04003
286.00000,-28.60020,-68.15621
286.10000,-28.60993,-68.26422
286.20000,-28.62046,-68.38769
286.30003,-28.63033,-68.49238
286.40003,-28.64020,-68.60205
286.50000,-28.65046,-68.72548
286.60000,-28.66020,-68.84436
286.70000,-28.67020,-68.95116
286.80003,-28.68020,-69.06580
286.90003,-28.69006,-69.18073
287.00000,-28.70006,-69.29462
287.10000,-28.71020,-69.41540
287.20000,-28.72020,-69.53139
287.30003,-28.73020,-69.64702
287.40003,-28.74020,-69.76140
287.50000,-28.75033,-69.88579
287.60000,-28.76006,-70.00446
287.70000,-28.77033,-70.11497
287.80003,-28.78033,-70.24052
287.90003,-28.78993,-70.34517
288.00000,-28.80046,-70.47293
288.10000,-28.81020,-70.59462
288.19803,-28.81993,-70.70772
